File: data/processed/processed_data/2024-10-11/2024-10-11_glycinepowder_n_n_n_solid_10000_0_5.csv
Pixels #,Intensity (a.u.),Wavelength (nm),Raman shift (cm-1),Raman shift (cm-1) adjusted,Filtered Intensity (a.u.),Baselined Filtered Intensity (a.u.)
0.0,0.877735,543.803,407.968,406.929,0.876808,-0.0382126
12.0,0.880263,544.462,430.238,429.188,0.875172,-0.0398514
24.0,0.874788,545.121,452.454,451.393,0.874311,-0.0407203
36.0,0.879029,545.781,474.616,473.545,0.879029,-0.0360153
48.0,0.930787,546.44,496.725,495.643,0.930787,0.0157254
60.0,1.05707,547.099,518.78,517.688,1.05707,0.141994
72.0,1.11439,547.759,540.782,539.68,1.11646,0.201384
84.0,1.13078,548.418,562.732,561.619,1.13118,0.216104
96.0,1.139,549.078,584.628,583.506,1.14036,0.225284
108.0,1.15127,549.737,606.472,605.339,1.15001,0.234934
120.0,1.13921,550.396,628.264,627.121,1.13942,0.224344
132.0,1.14264,551.056,650.004,648.85,1.13771,0.222634
144.0,1.15193,551.715,671.691,670.528,1.15193,0.236854
156.0,1.17762,552.374,693.327,692.153,1.17842,0.263344
168.0,1.20868,553.034,714.912,713.727,1.20926,0.294184
180.0,1.2628,553.693,736.444,735.25,1.2628,0.347724
192.0,1.3275,554.352,757.926,756.722,1.3275,0.412424
204.0,1.43192,555.012,779.357,778.142,1.43192,0.516844
216.0,1.57702,555.671,800.737,799.512,1.57702,0.661944
228.0,1.75962,556.33,822.066,820.831,1.75962,0.844544
240.0,1.95224,556.99,843.344,842.1,1.95224,1.03716
252.0,2.11783,557.649,864.572,863.318,2.11783,1.20275
264.0,2.28938,558.309,885.751,884.486,2.28938,1.3743
276.0,2.29098,558.968,906.879,905.604,2.29098,1.3759
288.0,2.29508,559.627,927.957,926.673,2.29749,1.38241
300.0,2.29952,560.287,948.986,947.691,2.30491,1.38983
312.0,2.3027,560.946,969.965,968.661,2.30814,1.39306
324.0,2.32353,561.605,990.895,989.581,2.32533,1.41025
336.0,2.34856,562.265,1011.78,1010.45,2.34991,1.43483
348.0,2.40353,562.924,1032.61,1031.27,2.40353,1.48845
360.0,2.4011,563.583,1053.39,1052.05,2.40106,1.48598
372.0,2.4111,564.243,1074.13,1072.77,2.41136,1.49628
384.0,2.42089,564.902,1094.81,1093.45,2.42058,1.5055
396.0,2.43141,565.562,1115.45,1114.08,2.42933,1.51425
408.0,2.44576,566.221,1136.04,1134.66,2.44302,1.52794
420.0,2.44265,566.88,1156.58,1155.19,2.44327,1.52819
432.0,2.45718,567.54,1177.08,1175.68,2.45718,1.5421
444.0,2.46958,568.199,1197.52,1196.11,2.46958,1.5545
456.0,2.48225,568.858,1217.92,1216.5,2.48225,1.56717
468.0,2.49042,569.518,1238.28,1236.85,2.48989,1.57481
480.0,2.49674,570.177,1258.58,1257.14,2.49674,1.58166
492.0,2.50636,570.836,1278.84,1277.39,2.50868,1.5936
504.0,2.53111,571.496,1299.05,1297.59,2.53427,1.61919
516.0,2.6583,572.155,1319.22,1317.75,2.6583,1.74322
528.0,2.56404,572.815,1339.33,1337.86,2.56404,1.64896
540.0,2.54815,573.474,1359.41,1357.92,2.54815,1.63307
552.0,2.56985,574.133,1379.43,1377.94,2.56722,1.65214
564.0,2.60399,574.793,1399.41,1397.91,2.60399,1.68891
576.0,2.61978,575.452,1419.35,1417.83,2.61978,1.7047
588.0,2.60286,576.111,1439.24,1437.71,2.60286,1.68778
600.0,2.61289,576.771,1459.08,1457.54,2.6092,1.69412
612.0,2.59203,577.43,1478.88,1477.33,2.59203,1.67695
624.0,2.61342,578.089,1498.63,1497.08,2.60614,1.69106
636.0,2.62197,578.749,1518.34,1516.77,2.61882,1.70374
648.0,2.61717,579.408,1538,1536.43,2.6151,1.70002
660.0,2.63317,580.067,1557.62,1556.04,2.63036,1.71528
672.0,2.70773,580.727,1577.19,1575.6,2.64015,1.72507
684.0,2.61671,581.386,1596.72,1595.12,2.61671,1.70163
696.0,2.61794,582.046,1616.21,1614.6,2.61992,1.70484
708.0,2.62363,582.705,1635.65,1634.03,2.62042,1.70534
720.0,2.62239,583.364,1655.04,1653.42,2.61798,1.7029
732.0,2.63175,584.024,1674.4,1672.76,2.62908,1.714
744.0,2.61721,584.683,1693.71,1692.06,2.6206,1.70552
756.0,2.62608,585.342,1712.97,1711.32,2.62334,1.70826
768.0,2.62472,586.002,1732.2,1730.53,2.6269,1.71182
780.0,2.62529,586.661,1751.38,1749.7,2.62738,1.7123
792.0,2.628,587.32,1770.51,1768.83,2.62519,1.71011
804.0,2.62782,587.98,1789.61,1787.91,2.62535,1.71027
816.0,2.6183,588.639,1808.66,1806.96,2.62245,1.70737
828.0,2.62909,589.299,1827.66,1825.96,2.62562,1.71054
840.0,2.62545,589.958,1846.63,1844.91,2.62768,1.7126
852.0,2.63054,590.617,1865.55,1863.83,2.6292,1.71412
864.0,2.63056,591.277,1884.43,1882.7,2.63492,1.71984
876.0,2.62889,591.936,1903.27,1901.53,2.62543,1.71035
888.0,2.62521,592.595,1922.07,1920.32,2.62656,1.71148
900.0,2.6242,593.255,1940.83,1939.06,2.62083,1.70575
912.0,2.6162,593.914,1959.54,1957.77,2.61555,1.70047
924.0,2.60346,594.573,1978.21,1976.43,2.60656,1.69148
936.0,2.59677,595.233,1996.84,1995.05,2.60153,1.68645
948.0,2.59632,595.892,2015.43,2013.63,2.59245,1.67737
960.0,2.58234,596.551,2033.98,2032.17,2.58357,1.66849
972.0,2.57436,597.211,2052.49,2050.67,2.57705,1.66197
984.0,2.56457,597.87,2070.95,2069.13,2.56641,1.65133
996.0,2.56217,598.53,2089.38,2087.55,2.55202,1.63694
1008.0,2.54804,599.189,2107.77,2105.93,2.54391,1.62883
1020.0,2.53562,599.848,2126.11,2124.26,2.53611,1.62103
1032.0,2.52721,600.508,2144.42,2142.56,2.52721,1.61213
1044.0,2.52356,601.167,2162.68,2160.81,2.5188,1.60372
1056.0,2.50496,601.826,2180.9,2179.03,2.50433,1.58925
1068.0,2.49304,602.486,2199.09,2197.21,2.49448,1.5794
1080.0,2.48853,603.145,2217.23,2215.34,2.48842,1.57334
1092.0,2.48309,603.804,2235.34,2233.44,2.48192,1.56684
1104.0,2.47645,604.464,2253.41,2251.5,2.47645,1.56137
1116.0,2.46455,605.123,2271.43,2269.51,2.468,1.55292
1128.0,2.4617,605.783,2289.42,2287.49,2.45724,1.54216
1140.0,2.45077,606.442,2307.37,2305.43,2.45077,1.53569
1152.0,2.44328,607.101,2325.28,2323.33,2.4436,1.52852
1164.0,2.43723,607.761,2343.15,2341.19,2.43516,1.52008
1176.0,2.42823,608.42,2360.98,2359.02,2.42766,1.51258
1188.0,2.41769,609.079,2378.77,2376.8,2.41769,1.50261
1200.0,2.40994,609.739,2396.52,2394.55,2.40941,1.49433
1212.0,2.4002,610.398,2414.24,2412.26,2.39496,1.47988
1224.0,2.38667,611.057,2431.92,2429.93,2.38667,1.47159
1236.0,2.37068,611.717,2449.56,2447.56,2.37239,1.45731
1248.0,2.36348,612.376,2467.16,2465.15,2.36479,1.44971
1260.0,2.35339,613.036,2484.72,2482.71,2.35339,1.43831
1272.0,2.33932,613.695,2502.25,2500.22,2.33883,1.42375
1284.0,2.32456,614.354,2519.74,2517.7,2.32585,1.41077
1296.0,2.31464,615.014,2537.19,2535.15,2.31426,1.39918
1308.0,2.2941,615.673,2554.6,2552.55,2.29844,1.38336
1320.0,2.28541,616.332,2571.98,2569.92,2.28022,1.36514
1332.0,2.26531,616.992,2589.32,2587.25,2.26531,1.35023
1344.0,2.25399,617.651,2606.62,2604.54,2.25555,1.34047
1356.0,2.24098,618.31,2623.89,2621.8,2.23977,1.32469
1368.0,2.22558,618.97,2641.11,2639.02,2.22709,1.31201
1380.0,2.21394,619.629,2658.31,2656.21,2.21087,1.29579
1392.0,2.21123,620.288,2675.46,2673.35,2.19728,1.2822
1404.0,2.18451,620.948,2692.58,2690.46,2.1868,1.27172
1416.0,2.17873,621.607,2709.66,2707.54,2.17795,1.26287
1428.0,2.1727,622.267,2726.71,2724.58,2.1722,1.25712
1440.0,2.15606,622.926,2743.72,2741.58,2.15794,1.24286
1452.0,2.14422,623.585,2760.69,2758.55,2.14422,1.22914
1464.0,2.13528,624.245,2777.63,2775.48,2.13809,1.22301
1476.0,2.12671,624.904,2794.53,2792.37,2.12636,1.21128
1488.0,2.1132,625.563,2811.4,2809.23,2.1141,1.19902
1500.0,2.10271,626.223,2828.23,2826.05,2.10401,1.18893
1512.0,2.09326,626.882,2845.03,2842.84,2.09093,1.17585
1524.0,2.08469,627.541,2861.79,2859.59,2.08424,1.16916
1536.0,2.07775,628.201,2878.52,2876.31,2.07775,1.16267
1548.0,2.0721,628.86,2895.21,2892.99,2.06925,1.15417
1560.0,2.05586,629.52,2911.86,2909.64,2.05686,1.14178
1572.0,2.04208,630.179,2928.48,2926.25,2.04765,1.13257
1584.0,2.04284,630.838,2945.07,2942.83,2.04097,1.12589
1596.0,2.09802,631.498,2961.62,2959.38,2.09802,1.18294
1608.0,2.1043,632.157,2978.14,2975.89,2.1043,1.18922
1620.0,1.99451,632.816,2994.62,2992.36,1.99701,1.08193
1632.0,2.00883,633.476,3011.07,3008.8,2.00883,1.09375
1644.0,1.93239,634.135,3027.48,3025.21,1.93239,1.01731
1656.0,1.91031,634.794,3043.86,3041.58,1.91082,0.995744
1668.0,1.89388,635.454,3060.21,3057.92,1.8945,0.979424
1680.0,1.87554,636.113,3076.52,3074.22,1.87554,0.960464
1692.0,1.85924,636.772,3092.8,3090.49,1.85924,0.944164
1704.0,1.84149,637.432,3109.04,3106.73,1.8475,0.932424
1716.0,1.83945,638.091,3125.25,3122.93,1.83882,0.923744
1728.0,1.8267,638.751,3141.43,3139.1,1.82786,0.912784
1740.0,1.81509,639.41,3157.57,3155.24,1.81186,0.896784
1752.0,1.78777,640.069,3173.68,3171.34,1.78777,0.872694
1764.0,1.76569,640.729,3189.76,3187.41,1.77056,0.855484
1776.0,1.75288,641.388,3205.81,3203.45,1.75288,0.837804
1788.0,1.73911,642.047,3221.82,3219.45,1.73543,0.820354
1800.0,1.72034,642.707,3237.8,3235.42,1.72128,0.806204
1812.0,1.70455,643.366,3253.74,3251.36,1.70478,0.789704
1824.0,1.68814,644.025,3269.66,3267.27,1.68974,0.774664
1836.0,1.67674,644.685,3285.54,3283.14,1.67594,0.760864
1848.0,1.66266,645.344,3301.39,3298.98,1.66194,0.746864
1860.0,1.6488,646.004,3317.2,3314.79,1.64846,0.733384
1872.0,1.63757,646.663,3332.98,3330.57,1.63474,0.719664
1884.0,1.61773,647.322,3348.74,3346.31,1.61934,0.704264
1896.0,1.60995,647.982,3364.46,3362.02,1.60749,0.692414
1908.0,1.59318,648.641,3380.14,3377.7,1.59288,0.677804
1920.0,1.58155,649.3,3395.8,3393.35,1.58249,0.667414
1932.0,1.57024,649.96,3411.42,3408.97,1.56699,0.651914
1944.0,1.556,650.619,3427.02,3424.55,1.5507,0.635624
1956.0,1.53402,651.278,3442.58,3440.11,1.539,0.623924
1968.0,1.52776,651.938,3458.11,3455.63,1.52301,0.607934
1980.0,1.5108,652.597,3473.6,3471.12,1.51003,0.594954
1992.0,1.49435,653.257,3489.07,3486.58,1.49777,0.582694
2004.0,1.48304,653.916,3504.51,3502.01,1.48223,0.567154
2016.0,1.46728,654.575,3519.91,3517.4,1.46944,0.554364
2028.0,1.45671,655.235,3535.28,3532.77,1.45639,0.541314
2040.0,1.44546,655.894,3550.63,3548.1,1.4436,0.528524
2047.0,1.43876,656.279,3559.56,3557.04,1.43876,0.523684