File: data/processed/processed_data/2024-10-11/2024-10-11_sodiumsulfatepowder_n_n_n_solid_10000_0_5.csv
Pixels #,Intensity (a.u.),Wavelength (nm),Raman shift (cm-1),Raman shift (cm-1) adjusted,Filtered Intensity (a.u.),Baselined Filtered Intensity (a.u.)
0.0,0.816854,543.803,407.968,406.929,0.816854,0.0181245
13.0,0.816392,544.517,432.091,431.041,0.818021,0.0192915
26.0,0.817262,545.231,456.151,455.089,0.81593,0.0172005
39.0,0.848368,545.946,480.148,479.075,0.819958,0.0212285
52.0,0.819209,546.66,504.082,502.998,0.817923,0.0191935
65.0,0.818224,547.374,527.954,526.858,0.817537,0.0188075
78.0,0.818865,548.088,551.763,550.656,0.817388,0.0186585
91.0,0.823506,548.803,575.511,574.393,0.818135,0.0194055
104.0,0.815771,549.517,599.197,598.067,0.819605,0.0208755
117.0,0.818965,550.231,622.821,621.68,0.819862,0.0211325
130.0,0.817787,550.946,646.384,645.232,0.818333,0.0196035
143.0,0.817296,551.66,669.886,668.723,0.815984,0.0172545
156.0,0.814543,552.374,693.327,692.153,0.81423,0.0155005
169.0,0.815534,553.089,716.708,715.523,0.814016,0.0152865
182.0,0.815582,553.803,740.028,738.832,0.815298,0.0165685
195.0,0.81298,554.517,763.289,762.082,0.81298,0.0142505
208.0,0.810434,555.232,786.489,785.271,0.811863,0.0131335
221.0,0.814052,555.946,809.63,808.401,0.813371,0.0146415
234.0,0.814856,556.66,832.711,831.472,0.814757,0.0160275
247.0,0.816926,557.374,855.733,854.483,0.815363,0.0166335
260.0,0.814715,558.089,878.697,877.435,0.813309,0.0145795
273.0,0.822359,558.803,901.601,900.329,0.814875,0.0161455
286.0,0.81398,559.517,924.448,923.165,0.812748,0.0140185
299.0,0.82256,560.232,947.235,945.942,0.815796,0.0170665
312.0,0.814674,560.946,969.965,968.661,0.815571,0.0168415
325.0,0.995918,561.66,992.637,991.322,0.993128,0.194398
338.0,0.816785,562.375,1015.25,1013.93,0.816247,0.0175175
351.0,0.81282,563.089,1037.81,1036.47,0.811839,0.0131095
364.0,0.808136,563.803,1060.31,1058.96,0.810462,0.0117325
377.0,0.810106,564.518,1082.75,1081.39,0.809651,0.0109215
390.0,0.829307,565.232,1105.14,1103.77,0.828717,0.0299875
403.0,0.818052,565.946,1127.47,1126.09,0.818052,0.0193225
416.0,0.818141,566.66,1149.74,1148.35,0.819464,0.0207345
429.0,0.805628,567.375,1171.96,1170.56,0.806758,0.00802848
442.0,0.805119,568.089,1194.12,1192.71,0.805835,0.00710572
455.0,0.804903,568.803,1216.23,1214.81,0.805431,0.00670268
468.0,0.804193,569.518,1238.28,1236.85,0.804193,0.00546634
481.0,0.804383,570.232,1260.27,1258.83,0.804383,0.00565882
494.0,0.821298,570.946,1282.21,1280.76,0.805419,0.00669808
507.0,0.80204,571.661,1304.1,1302.63,0.80204,0.00332306
520.0,0.803836,572.375,1325.93,1324.45,0.803836,0.00512356
533.0,0.80047,573.089,1347.7,1346.22,0.802308,0.00360055
546.0,0.801724,573.804,1369.43,1367.93,0.801724,0.00302196
559.0,0.800587,574.518,1391.09,1389.59,0.801444,0.0027478
572.0,0.798922,575.232,1412.71,1411.19,0.799063,0.000372942
585.0,0.816343,575.946,1434.27,1432.74,0.799646,0.000962321
598.0,0.800045,576.661,1455.78,1454.24,0.799964,0.00128695
611.0,0.802619,577.375,1477.23,1475.69,0.800519,0.00184875
624.0,0.802018,578.089,1498.63,1497.08,0.801192,0.00252876
637.0,0.798751,578.804,1519.98,1518.41,0.798666,9.94668e-06
650.0,0.798353,579.518,1541.27,1539.7,0.797147,-0.00150191
663.0,0.798601,580.232,1562.52,1560.93,0.798601,-4.08498e-05
676.0,0.795735,580.947,1583.71,1582.11,0.796509,-0.00212579
689.0,0.796642,581.661,1604.85,1603.24,0.796889,-0.00173895
702.0,0.802436,582.375,1625.93,1624.32,0.796138,-0.00248336
715.0,0.798017,583.09,1646.97,1645.34,0.79771,-0.000904917
728.0,0.796187,583.804,1667.95,1666.32,0.797837,-0.000771622
741.0,0.796892,584.518,1688.88,1687.24,0.79715,-0.00145254
754.0,0.798222,585.232,1709.77,1708.11,0.798125,-0.000471611
767.0,0.796992,585.947,1730.6,1728.93,0.796992,-0.00159894
780.0,0.794603,586.661,1751.38,1749.7,0.795156,-0.0034295
793.0,0.79536,587.375,1772.1,1770.42,0.797154,-0.00142635
806.0,0.795526,588.09,1792.78,1791.09,0.796348,-0.00222748
819.0,0.795554,588.804,1813.41,1811.71,0.795554,-0.00301697
832.0,0.795472,589.518,1833.99,1832.28,0.795472,-0.00309481
845.0,0.802246,590.233,1854.52,1852.8,0.800295,0.00173201
858.0,0.796494,590.947,1875,1873.27,0.796492,-0.00206739
871.0,0.79579,591.661,1895.43,1893.69,0.797134,-0.001422
884.0,0.797474,592.376,1915.81,1914.06,0.797001,-0.00155179
897.0,0.797899,593.09,1936.14,1934.38,0.796691,-0.00185881
910.0,0.797843,593.804,1956.42,1954.65,0.797205,-0.00134214
923.0,0.79644,594.518,1976.66,1974.88,0.796686,-0.00185869
936.0,0.793894,595.233,1996.84,1995.05,0.797027,-0.00151554
949.0,0.80271,595.947,2016.98,2015.18,0.797575,-0.000965643
962.0,0.798824,596.661,2037.07,2035.26,0.796157,-0.00238192
975.0,0.802163,597.376,2057.11,2055.29,0.798359,-0.000178432
988.0,0.796571,598.09,2077.1,2075.27,0.79752,-0.00101608
1001.0,0.798422,598.804,2097.05,2095.21,0.797715,-0.000819915
1014.0,0.795754,599.519,2116.94,2115.1,0.795861,-0.00267288
1027.0,0.798209,600.233,2136.79,2134.94,0.798025,-0.000508045
1040.0,0.802592,600.947,2156.6,2154.73,0.79796,-0.000572362
1053.0,0.79688,601.662,2176.35,2174.48,0.797321,-0.00121082
1066.0,0.796015,602.376,2196.06,2194.18,0.796313,-0.00221848
1079.0,0.799935,603.09,2215.72,2213.83,0.797591,-0.000940287
1092.0,0.798577,603.804,2235.34,2233.44,0.797645,-0.000886107
1105.0,0.802056,604.519,2254.91,2253,0.798129,-0.000401938
1118.0,0.801555,605.233,2274.43,2272.51,0.801715,0.00318432
1131.0,0.798878,605.947,2293.91,2291.98,0.798008,-0.000522273
1144.0,0.800851,606.662,2313.34,2311.4,0.799459,0.000929254
1157.0,0.798621,607.376,2332.73,2330.78,0.801071,0.00254194
1170.0,0.798233,608.09,2352.07,2350.11,0.798233,-0.000295284
1183.0,0.80157,608.805,2371.36,2369.4,0.797701,-0.000826401
1196.0,0.800321,609.519,2390.61,2388.64,0.800321,0.00179459
1209.0,0.799864,610.233,2409.82,2407.83,0.799513,0.000987778
1222.0,0.839085,610.948,2428.97,2426.98,0.799495,0.000971081
1235.0,0.79865,611.662,2448.09,2446.09,0.799012,0.000489459
1248.0,0.799374,612.376,2467.16,2465.15,0.800385,0.0018639
1261.0,0.803234,613.09,2486.19,2484.17,0.797934,-0.000585477
1274.0,0.799509,613.805,2505.17,2503.14,0.799509,0.000991328
1287.0,0.814736,614.519,2524.1,2522.07,0.800038,0.00152226
1300.0,0.800355,615.233,2543,2540.95,0.800355,0.00184133
1313.0,0.799446,615.948,2561.85,2559.79,0.799724,0.00121264
1326.0,0.801134,616.662,2580.65,2578.59,0.799458,0.000949148
1339.0,0.800644,617.376,2599.42,2597.34,0.800644,0.00213784
1352.0,0.800311,618.091,2618.13,2616.05,0.800311,0.00180772
1365.0,0.798602,618.805,2636.81,2634.72,0.799245,0.000744892
1378.0,0.802593,619.519,2655.44,2653.34,0.801601,0.00310426
1391.0,0.799219,620.234,2674.03,2671.93,0.802625,0.00413176
1404.0,0.796603,620.948,2692.58,2690.46,0.799374,0.000884425
1417.0,0.801693,621.662,2711.08,2708.96,0.801693,0.00320727
1430.0,0.801775,622.376,2729.55,2727.41,0.801775,0.00329339
1443.0,0.802354,623.091,2747.97,2745.82,0.802274,0.00379674
1456.0,0.80147,623.805,2766.34,2764.19,0.80147,0.0029974
1469.0,0.799528,624.519,2784.68,2782.52,0.799384,0.000916289
1482.0,0.799293,625.234,2802.97,2800.8,0.799662,0.0011993
1495.0,0.800189,625.948,2821.22,2819.05,0.79979,0.0013325
1508.0,0.802347,626.662,2839.43,2837.25,0.800269,0.00181687
1521.0,0.800364,627.377,2857.6,2855.41,0.800098,0.00165138
1534.0,0.797949,628.091,2875.73,2873.53,0.800095,0.00165408
1547.0,0.798405,628.805,2893.82,2891.61,0.800116,0.00168097
1560.0,0.799154,629.52,2911.86,2909.64,0.799154,0.000725005
1573.0,0.807216,630.234,2929.87,2927.64,0.8025,0.00407708
1586.0,0.803162,630.948,2947.83,2945.59,0.800443,0.00202621
1599.0,0.797973,631.662,2965.75,2963.51,0.799535,0.00112454
1612.0,0.796333,632.377,2983.63,2981.38,0.797931,-0.000473034
1625.0,0.799573,633.091,3001.48,2999.21,0.800429,0.00203142
1638.0,0.798482,633.805,3019.28,3017.01,0.798482,9.10059e-05
1651.0,0.799358,634.52,3037.04,3034.76,0.799358,0.000973683
1664.0,0.796171,635.234,3054.76,3052.47,0.799296,0.00091847
1677.0,0.795953,635.948,3072.44,3070.15,0.798126,-0.000244649
1690.0,0.800692,636.663,3090.09,3087.78,0.797636,-0.000727798
1703.0,0.799016,637.377,3107.69,3105.38,0.799016,0.000658975
1716.0,0.798149,638.091,3125.25,3122.93,0.797776,-0.000574239
1729.0,0.798342,638.806,3142.78,3140.45,0.798342,-1.47715e-06
1742.0,0.796002,639.52,3160.26,3157.92,0.797324,-0.00101275
1755.0,0.796324,640.234,3177.71,3175.36,0.79731,-0.00102009
1768.0,0.797827,640.948,3195.11,3192.76,0.797827,-0.000496536
1781.0,0.797282,641.663,3212.48,3210.12,0.797282,-0.00103512
1794.0,0.796934,642.377,3229.81,3227.44,0.796885,-0.00142589
1807.0,0.798422,643.091,3247.1,3244.72,0.798422,0.000117115
1820.0,0.797229,643.806,3264.36,3261.97,0.797229,-0.00106998
1833.0,0.795992,644.52,3281.57,3279.18,0.795992,-0.00230125
1846.0,0.811473,645.234,3298.75,3296.34,0.798119,-0.000168784
1859.0,0.796292,645.949,3315.88,3313.47,0.797038,-0.00124454
1872.0,0.797731,646.663,3332.98,3330.57,0.796974,-0.00130356
1885.0,0.795678,647.377,3350.05,3347.62,0.795678,-0.00259484
1898.0,0.799071,648.092,3367.07,3364.64,0.79647,-0.00179841
1911.0,0.796097,648.806,3384.06,3381.62,0.796097,-0.00216729
1924.0,0.796504,649.52,3401.01,3398.56,0.794498,-0.00376253
1937.0,0.794426,650.234,3417.92,3415.47,0.795356,-0.00290115
1950.0,0.794707,650.949,3434.8,3432.33,0.796877,-0.00137713
1963.0,0.793588,651.663,3451.64,3449.16,0.794256,-0.00399545
1976.0,0.793975,652.377,3468.44,3465.96,0.795324,-0.00292518
1989.0,0.795906,653.092,3485.21,3482.72,0.796344,-0.00190333
2002.0,0.79435,653.806,3501.93,3499.44,0.795159,-0.00308678
2015.0,0.79627,654.52,3518.63,3516.12,0.795163,-0.00308153
2028.0,0.794504,655.235,3535.28,3532.77,0.795117,-0.00312666
2041.0,0.797095,655.949,3551.9,3549.38,0.797095,-0.00114824
2047.0,0.797363,656.279,3559.56,3557.04,0.795615,-0.0026282