File: data/processed/processed_data/2024-10-11/2024-10-11_sodiumphosphatedibasicheptahydratepowder_n_n_n_solid_10000_0_5.csv
Pixels #,Intensity (a.u.),Wavelength (nm),Raman shift (cm-1),Raman shift (cm-1) adjusted,Filtered Intensity (a.u.),Baselined Filtered Intensity (a.u.)
0.0,0.826028,543.803,407.968,406.929,0.825997,0.0287838
12.0,0.830912,544.462,430.238,429.188,0.825651,0.0284378
24.0,0.82298,545.121,452.454,451.393,0.824997,0.0277838
36.0,0.824116,545.781,474.616,473.545,0.82613,0.0289168
48.0,0.830008,546.44,496.725,495.643,0.826939,0.0297258
60.0,0.830459,547.099,518.78,517.688,0.827867,0.0306538
72.0,0.826617,547.759,540.782,539.68,0.826617,0.0294038
84.0,0.824608,548.418,562.732,561.619,0.824608,0.0273948
96.0,0.823471,549.078,584.628,583.506,0.823162,0.0259488
108.0,0.822385,549.737,606.472,605.339,0.822385,0.0251718
120.0,0.820036,550.396,628.264,627.121,0.820525,0.0233118
132.0,0.824349,551.056,650.004,648.85,0.821217,0.0240038
144.0,0.82161,551.715,671.691,670.528,0.821885,0.0246718
156.0,0.819918,552.374,693.327,692.153,0.819608,0.0223948
168.0,0.81865,553.034,714.912,713.727,0.81865,0.0214368
180.0,0.819612,553.693,736.444,735.25,0.819612,0.0223988
192.0,0.81998,554.352,757.926,756.722,0.816904,0.0196908
204.0,0.816261,555.012,779.357,778.142,0.816297,0.0190838
216.0,0.818861,555.671,800.737,799.512,0.818394,0.0211808
228.0,0.816238,556.33,822.066,820.831,0.8166,0.0193868
240.0,0.815266,556.99,843.344,842.1,0.818537,0.0213238
252.0,0.839803,557.649,864.572,863.318,0.839803,0.0425898
264.0,0.818958,558.309,885.751,884.486,0.820405,0.0231918
276.0,0.815089,558.968,906.879,905.604,0.814025,0.0168118
288.0,0.812609,559.627,927.957,926.673,0.814376,0.0171628
300.0,0.819272,560.287,948.986,947.691,0.820635,0.0234218
312.0,0.857516,560.946,969.965,968.661,0.871823,0.0746098
324.0,0.856734,561.605,990.895,989.581,0.856734,0.0595208
336.0,0.812105,562.265,1011.78,1010.45,0.812105,0.0148918
348.0,0.808642,562.924,1032.61,1031.27,0.8099,0.0126868
360.0,0.812823,563.583,1053.39,1052.05,0.812637,0.0154238
372.0,0.81383,564.243,1074.13,1072.77,0.814094,0.0168808
384.0,0.807565,564.902,1094.81,1093.45,0.809404,0.0121908
396.0,0.805683,565.562,1115.45,1114.08,0.803726,0.00651275
408.0,0.8057,566.221,1136.04,1134.66,0.803649,0.00643575
420.0,0.803578,566.88,1156.58,1155.19,0.803726,0.00651277
432.0,0.805086,567.54,1177.08,1175.68,0.805086,0.00787283
444.0,0.801728,568.199,1197.52,1196.11,0.801236,0.00402306
456.0,0.80158,568.858,1217.92,1216.5,0.80158,0.00436766
468.0,0.799872,569.518,1238.28,1236.85,0.799872,0.00266063
480.0,0.798615,570.177,1258.58,1257.14,0.800157,0.00294701
492.0,0.797543,570.836,1278.84,1277.39,0.798927,0.00171878
504.0,0.797428,571.496,1299.05,1297.59,0.797562,0.000355849
516.0,0.797014,572.155,1319.22,1317.75,0.798557,0.0013531
528.0,0.798136,572.815,1339.33,1337.86,0.798233,0.00103154
540.0,0.796683,573.474,1359.41,1357.92,0.79676,-0.000438885
552.0,0.801896,574.133,1379.43,1377.94,0.797068,-0.000128274
564.0,0.795062,574.793,1399.41,1397.91,0.795617,-0.0015766
576.0,0.798627,575.452,1419.35,1417.83,0.795404,-0.001787
588.0,0.797605,576.111,1439.24,1437.71,0.795414,-0.00177451
600.0,0.802517,576.771,1459.08,1457.54,0.795366,-0.0018202
612.0,0.795792,577.43,1478.88,1477.33,0.796195,-0.000989056
624.0,0.79754,578.089,1498.63,1497.08,0.796319,-0.000863134
636.0,0.794462,578.749,1518.34,1516.77,0.794462,-0.00271845
648.0,0.792778,579.408,1538,1536.43,0.793053,-0.00412613
660.0,0.793986,580.067,1557.62,1556.04,0.794878,-0.00230024
672.0,0.871032,580.727,1577.19,1575.6,0.794511,-0.00266667
684.0,0.794117,581.386,1596.72,1595.12,0.794476,-0.00270149
696.0,0.793682,582.046,1616.21,1614.6,0.794574,-0.00260373
708.0,0.797894,582.705,1635.65,1634.03,0.795737,-0.00144122
720.0,0.796385,583.364,1655.04,1653.42,0.795995,-0.00118392
732.0,0.794677,584.024,1674.4,1672.76,0.794068,-0.00311192
744.0,0.794376,584.683,1693.71,1692.06,0.794376,-0.00280524
756.0,0.794877,585.342,1712.97,1711.32,0.794877,-0.00230581
768.0,0.794682,586.002,1732.2,1730.53,0.794682,-0.00250276
780.0,0.793059,586.661,1751.38,1749.7,0.793059,-0.00412809
792.0,0.795018,587.32,1770.51,1768.83,0.794341,-0.00284879
804.0,0.793902,587.98,1789.61,1787.91,0.793459,-0.00373386
816.0,0.794698,588.639,1808.66,1806.96,0.794347,-0.00284938
828.0,0.79641,589.299,1827.66,1825.96,0.794487,-0.00271331
840.0,0.79329,589.958,1846.63,1844.91,0.79329,-0.00391464
852.0,0.793842,590.617,1865.55,1863.83,0.795652,-0.00155726
864.0,0.793702,591.277,1884.43,1882.7,0.797276,6.19405e-05
876.0,0.795939,591.936,1903.27,1901.53,0.794833,-0.00238599
888.0,0.799152,592.595,1922.07,1920.32,0.796048,-0.00117606
900.0,0.797631,593.255,1940.83,1939.06,0.79603,-0.00119928
912.0,0.79684,593.914,1959.54,1957.77,0.796901,-0.000333622
924.0,0.795965,594.573,1978.21,1976.43,0.79716,-7.99795e-05
936.0,0.79444,595.233,1996.84,1995.05,0.797536,0.000290653
948.0,0.798434,595.892,2015.43,2013.63,0.798434,0.00118332
960.0,0.797572,596.551,2033.98,2032.17,0.797572,0.000316063
972.0,0.800507,597.211,2052.49,2050.67,0.800507,0.00324591
984.0,0.800865,597.87,2070.95,2069.13,0.800865,0.00359896
996.0,0.805457,598.53,2089.38,2087.55,0.800049,0.00277827
1008.0,0.804468,599.189,2107.77,2105.93,0.800363,0.00308783
1020.0,0.802286,599.848,2126.11,2124.26,0.803566,0.00628675
1032.0,0.803161,600.508,2144.42,2142.56,0.802638,0.00535504
1044.0,0.812758,601.167,2162.68,2160.81,0.802518,0.00523186
1056.0,0.801918,601.826,2180.9,2179.03,0.801918,0.00462902
1068.0,0.804469,602.486,2199.09,2197.21,0.803754,0.0064627
1080.0,0.803212,603.145,2217.23,2215.34,0.803212,0.00591872
1092.0,0.804039,603.804,2235.34,2233.44,0.803386,0.00609109
1104.0,0.803366,604.464,2253.41,2251.5,0.804327,0.00703075
1116.0,0.804097,605.123,2271.43,2269.51,0.805122,0.00782478
1128.0,0.806927,605.783,2289.42,2287.49,0.805107,0.00780899
1140.0,0.804081,606.442,2307.37,2305.43,0.806097,0.00879838
1152.0,0.805571,607.101,2325.28,2323.33,0.80478,0.00748085
1164.0,0.806396,607.761,2343.15,2341.19,0.805425,0.0081254
1176.0,0.805456,608.42,2360.98,2359.02,0.806154,0.00885401
1188.0,0.806632,609.079,2378.77,2376.8,0.806632,0.00933168
1200.0,0.808819,609.739,2396.52,2394.55,0.80809,0.0107895
1212.0,0.806974,610.398,2414.24,2412.26,0.806184,0.00888324
1224.0,0.80651,611.057,2431.92,2429.93,0.806139,0.00883814
1236.0,0.804656,611.717,2449.56,2447.56,0.806342,0.00904109
1248.0,0.806529,612.376,2467.16,2465.15,0.808298,0.0109971
1260.0,0.807763,613.036,2484.72,2482.71,0.807763,0.0104621
1272.0,0.807488,613.695,2502.25,2500.22,0.807488,0.0101871
1284.0,0.806572,614.354,2519.74,2517.7,0.805951,0.00865009
1296.0,0.809703,615.014,2537.19,2535.15,0.808241,0.0109401
1308.0,0.806194,615.673,2554.6,2552.55,0.807769,0.0104681
1320.0,0.812792,616.332,2571.98,2569.92,0.808565,0.0112641
1332.0,0.807949,616.992,2589.32,2587.25,0.807662,0.0103611
1344.0,0.808827,617.651,2606.62,2604.54,0.808827,0.0115261
1356.0,0.808701,618.31,2623.89,2621.8,0.808701,0.0114001
1368.0,0.807834,618.97,2641.11,2639.02,0.807834,0.0105331
1380.0,0.812036,619.629,2658.31,2656.21,0.810416,0.0131151
1392.0,0.820023,620.288,2675.46,2673.35,0.808413,0.0111121
1404.0,0.806493,620.948,2692.58,2690.46,0.80833,0.0110291
1416.0,0.80983,621.607,2709.66,2707.54,0.80983,0.0125291
1428.0,0.818758,622.267,2726.71,2724.58,0.810783,0.0134821
1440.0,0.809347,622.926,2743.72,2741.58,0.811637,0.0143361
1452.0,0.809417,623.585,2760.69,2758.55,0.809717,0.0124161
1464.0,0.809979,624.245,2777.63,2775.48,0.811066,0.0137651
1476.0,0.810169,624.904,2794.53,2792.37,0.810251,0.0129501
1488.0,0.807795,625.563,2811.4,2809.23,0.810934,0.0136331
1500.0,0.807408,626.223,2828.23,2826.05,0.810254,0.0129531
1512.0,0.811755,626.882,2845.03,2842.84,0.811683,0.0143821
1524.0,0.81305,627.541,2861.79,2859.59,0.811175,0.0138741
1536.0,0.811096,628.201,2878.52,2876.31,0.811096,0.0137951
1548.0,0.812329,628.86,2895.21,2892.99,0.812064,0.0147631
1560.0,0.812265,629.52,2911.86,2909.64,0.813807,0.0165061
1572.0,0.812895,630.179,2928.48,2926.25,0.817362,0.0200611
1584.0,0.815608,630.838,2945.07,2942.83,0.816443,0.0191421
1596.0,0.828168,631.498,2961.62,2959.38,0.819636,0.0223351
1608.0,0.815161,632.157,2978.14,2975.89,0.816791,0.0194901
1620.0,0.816174,632.816,2994.62,2992.36,0.81693,0.0196291
1632.0,0.821293,633.476,3011.07,3008.8,0.821196,0.0238951
1644.0,0.820557,634.135,3027.48,3025.21,0.819534,0.0222331
1656.0,0.821852,634.794,3043.86,3041.58,0.821152,0.0238511
1668.0,0.822013,635.454,3060.21,3057.92,0.821806,0.0245051
1680.0,0.821902,636.113,3076.52,3074.22,0.821599,0.0242981
1692.0,0.822908,636.772,3092.8,3090.49,0.822882,0.0255811
1704.0,0.820464,637.432,3109.04,3106.73,0.824861,0.0275601
1716.0,0.824455,638.091,3125.25,3122.93,0.824759,0.0274581
1728.0,0.826093,638.751,3141.43,3139.1,0.826093,0.0287921
1740.0,0.830702,639.41,3157.57,3155.24,0.827431,0.0301301
1752.0,0.830438,640.069,3173.68,3171.34,0.830202,0.0329011
1764.0,0.832128,640.729,3189.76,3187.41,0.832128,0.0348271
1776.0,0.836909,641.388,3205.81,3203.45,0.835667,0.0383661
1788.0,0.84176,642.047,3221.82,3219.45,0.841112,0.0438111
1800.0,0.844535,642.707,3237.8,3235.42,0.845653,0.0483521
1812.0,0.849231,643.366,3253.74,3251.36,0.849231,0.0519301
1824.0,0.854649,644.025,3269.66,3267.27,0.854649,0.0573481
1836.0,0.85606,644.685,3285.54,3283.14,0.85606,0.0587591
1848.0,0.862113,645.344,3301.39,3298.98,0.859903,0.0626021
1860.0,0.86305,646.004,3317.2,3314.79,0.861611,0.0643101
1872.0,0.86431,646.663,3332.98,3330.57,0.863452,0.0661511
1884.0,0.861152,647.322,3348.74,3346.31,0.863168,0.0658671
1896.0,0.867715,647.982,3364.46,3362.02,0.863903,0.0666021
1908.0,0.864261,648.641,3380.14,3377.7,0.862458,0.0651571
1920.0,0.862719,649.3,3395.8,3393.35,0.862719,0.0654181
1932.0,0.867667,649.96,3411.42,3408.97,0.863313,0.0660121
1944.0,0.869594,650.619,3427.02,3424.55,0.864944,0.0676431
1956.0,0.870173,651.278,3442.58,3440.11,0.870691,0.0733901
1968.0,0.887019,651.938,3458.11,3455.63,0.882022,0.0847211
1980.0,0.881041,652.597,3473.6,3471.12,0.879915,0.0826141
1992.0,0.867394,653.257,3489.07,3486.58,0.869338,0.0720371
2004.0,0.857479,653.916,3504.51,3502.01,0.857479,0.0601781
2016.0,0.848562,654.575,3519.91,3517.4,0.848562,0.0512611
2028.0,0.838944,655.235,3535.28,3532.77,0.83914,0.0418391
2040.0,0.833736,655.894,3550.63,3548.1,0.832439,0.0351381
2047.0,0.829967,656.279,3559.56,3557.04,0.829299,0.0319981