File: data/processed/processed_data/2024-10-11/2024-10-11_citricacidpowder_n_n_n_solid_10000_0_5.csv
Pixels #,Intensity (a.u.),Wavelength (nm),Raman shift (cm-1),Raman shift (cm-1) adjusted,Filtered Intensity (a.u.),Baselined Filtered Intensity (a.u.)
0.0,0.844819,543.803,407.968,406.929,0.844365,-0.0165273
12.0,0.850428,544.462,430.238,429.188,0.844825,-0.0160685
24.0,0.842916,545.121,452.454,451.393,0.843327,-0.0175698
36.0,0.845258,545.781,474.616,473.545,0.84518,-0.0157225
48.0,0.849521,546.44,496.725,495.643,0.848516,-0.0123943
60.0,0.85838,547.099,518.78,517.688,0.853904,-0.00701564
72.0,0.86067,547.759,540.782,539.68,0.860645,-0.000284838
84.0,0.856151,548.418,562.732,561.619,0.85809,-0.00285023
96.0,0.857348,549.078,584.628,583.506,0.856678,-0.00427288
108.0,0.857683,549.737,606.472,605.339,0.856656,-0.00430605
120.0,0.854799,550.396,628.264,627.121,0.854799,-0.00617485
132.0,0.854998,551.056,650.004,648.85,0.853509,-0.00747756
144.0,0.854753,551.715,671.691,670.528,0.854753,-0.00624737
156.0,0.854413,552.374,693.327,692.153,0.854413,-0.00660207
168.0,0.855779,553.034,714.912,713.727,0.855779,-0.00525154
180.0,0.85803,553.693,736.444,735.25,0.85803,-0.00301679
192.0,0.863594,554.352,757.926,756.722,0.861683,0.000619701
204.0,0.89772,555.012,779.357,778.142,0.89772,0.0366405
216.0,0.883855,555.671,800.737,799.512,0.883855,0.0227596
228.0,0.889572,556.33,822.066,820.831,0.890937,0.0298256
240.0,0.899026,556.99,843.344,842.1,0.903035,0.0419076
252.0,0.913336,557.649,864.572,863.318,0.914231,0.0530876
264.0,0.922487,558.309,885.751,884.486,0.922596,0.0614366
276.0,0.934236,558.968,906.879,905.604,0.932725,0.0715497
288.0,0.93682,559.627,927.957,926.673,0.93682,0.0756287
300.0,0.945989,560.287,948.986,947.691,0.957317,0.0961097
312.0,0.921269,560.946,969.965,968.661,0.921269,0.0600457
324.0,0.916977,561.605,990.895,989.581,0.918755,0.0575157
336.0,0.918966,562.265,1011.78,1010.45,0.918966,0.0577108
348.0,0.92011,562.924,1032.61,1031.27,0.922366,0.0610948
360.0,0.93171,563.583,1053.39,1052.05,0.933497,0.0722098
372.0,0.93218,564.243,1074.13,1072.77,0.93218,0.0708768
384.0,0.923448,564.902,1094.81,1093.45,0.927125,0.0658058
396.0,0.921955,565.562,1115.45,1114.08,0.918633,0.0572979
408.0,0.931883,566.221,1136.04,1134.66,0.928673,0.0673219
420.0,0.924684,566.88,1156.58,1155.19,0.924747,0.0633799
432.0,0.9257,567.54,1177.08,1175.68,0.9257,0.0643169
444.0,0.934835,568.199,1197.52,1196.11,0.933576,0.0721769
456.0,0.942431,568.858,1217.92,1216.5,0.942345,0.08093
468.0,0.924515,569.518,1238.28,1236.85,0.925024,0.063593
480.0,0.918824,570.177,1258.58,1257.14,0.921031,0.059584
492.0,0.919975,570.836,1278.84,1277.39,0.920281,0.058818
504.0,0.921208,571.496,1299.05,1297.59,0.921688,0.060209
516.0,0.920699,572.155,1319.22,1317.75,0.923244,0.0617491
528.0,0.928381,572.815,1339.33,1337.86,0.928381,0.0668701
540.0,0.924116,573.474,1359.41,1357.92,0.92559,0.0640631
552.0,0.937842,574.133,1379.43,1377.94,0.934304,0.0727611
564.0,0.93148,574.793,1399.41,1397.91,0.93148,0.0699211
576.0,0.93259,575.452,1419.35,1417.83,0.930937,0.0693622
588.0,0.936807,576.111,1439.24,1437.71,0.93457,0.0729792
600.0,0.938973,576.771,1459.08,1457.54,0.931763,0.0701562
612.0,0.928861,577.43,1478.88,1477.33,0.928861,0.0672382
624.0,0.925984,578.089,1498.63,1497.08,0.925984,0.0643452
636.0,0.922742,578.749,1518.34,1516.77,0.922742,0.0610873
648.0,0.921402,579.408,1538,1536.43,0.921767,0.0600963
660.0,0.922259,580.067,1557.62,1556.04,0.923099,0.0614123
672.0,1.00139,580.727,1577.19,1575.6,0.924185,0.0624823
684.0,0.924932,581.386,1596.72,1595.12,0.926093,0.0643743
696.0,0.928293,582.046,1616.21,1614.6,0.928293,0.0665584
708.0,0.936993,582.705,1635.65,1634.03,0.934685,0.0729344
720.0,0.932107,583.364,1655.04,1653.42,0.930958,0.0691914
732.0,0.933548,584.024,1674.4,1672.76,0.933548,0.0717654
744.0,0.960019,584.683,1693.71,1692.06,0.960019,0.0982204
756.0,0.939496,585.342,1712.97,1711.32,0.939496,0.0776815
768.0,0.943962,586.002,1732.2,1730.53,0.943962,0.0821315
780.0,0.930406,586.661,1751.38,1749.7,0.930418,0.0685715
792.0,0.927492,587.32,1770.51,1768.83,0.926987,0.0651245
804.0,0.923948,587.98,1789.61,1787.91,0.924008,0.0621295
816.0,0.925682,588.639,1808.66,1806.96,0.925431,0.0635366
828.0,0.927823,589.299,1827.66,1825.96,0.926756,0.0648456
840.0,0.924972,589.958,1846.63,1844.91,0.924972,0.0630456
852.0,0.925359,590.617,1865.55,1863.83,0.927582,0.0656396
864.0,0.92516,591.277,1884.43,1882.7,0.929631,0.0676726
876.0,0.927769,591.936,1903.27,1901.53,0.927102,0.0651277
888.0,0.930235,592.595,1922.07,1920.32,0.928254,0.0662637
900.0,0.929053,593.255,1940.83,1939.06,0.927627,0.0656207
912.0,0.928838,593.914,1959.54,1957.77,0.928838,0.0668157
924.0,0.926555,594.573,1978.21,1976.43,0.928193,0.0661547
936.0,0.924544,595.233,1996.84,1995.05,0.927467,0.0654128
948.0,0.92819,595.892,2015.43,2013.63,0.928019,0.0659488
960.0,0.926537,596.551,2033.98,2032.17,0.926537,0.0644508
972.0,0.929197,597.211,2052.49,2050.67,0.929197,0.0670948
984.0,0.928637,597.87,2070.95,2069.13,0.928335,0.0662168
996.0,0.93327,598.53,2089.38,2087.55,0.927598,0.0654639
1008.0,0.932337,599.189,2107.77,2105.93,0.92825,0.0660999
1020.0,0.928922,599.848,2126.11,2124.26,0.929289,0.0671229
1032.0,0.928338,600.508,2144.42,2142.56,0.928338,0.0661559
1044.0,0.938235,601.167,2162.68,2160.81,0.928424,0.0662259
1056.0,0.927335,601.826,2180.9,2179.03,0.926723,0.064509
1068.0,0.927021,602.486,2199.09,2197.21,0.927021,0.064791
1080.0,0.927551,603.145,2217.23,2215.34,0.927551,0.065305
1092.0,0.92697,603.804,2235.34,2233.44,0.92697,0.064708
1104.0,0.928416,604.464,2253.41,2251.5,0.929192,0.066914
1116.0,0.927368,605.123,2271.43,2269.51,0.929522,0.0672281
1128.0,0.929551,605.783,2289.42,2287.49,0.92918,0.0668701
1140.0,0.929415,606.442,2307.37,2305.43,0.930134,0.0678081
1152.0,0.929521,607.101,2325.28,2323.33,0.928819,0.0664771
1164.0,0.929719,607.761,2343.15,2341.19,0.928607,0.0662491
1176.0,0.928787,608.42,2360.98,2359.02,0.929655,0.0672812
1188.0,0.929683,609.079,2378.77,2376.8,0.929722,0.0673322
1200.0,0.931434,609.739,2396.52,2394.55,0.931434,0.0690282
1212.0,0.930383,610.398,2414.24,2412.26,0.929668,0.0672462
1224.0,0.927981,611.057,2431.92,2429.93,0.927981,0.0655432
1236.0,0.927756,611.717,2449.56,2447.56,0.928646,0.0661923
1248.0,0.927976,612.376,2467.16,2465.15,0.931381,0.0689113
1260.0,0.929852,613.036,2484.72,2482.71,0.929852,0.0673663
1272.0,0.929231,613.695,2502.25,2500.22,0.929231,0.0667293
1284.0,0.929355,614.354,2519.74,2517.7,0.928629,0.0661113
1296.0,0.930745,615.014,2537.19,2535.15,0.929346,0.0668124
1308.0,0.927785,615.673,2554.6,2552.55,0.927785,0.0652354
1320.0,0.933611,616.332,2571.98,2569.92,0.92849,0.0659244
1332.0,0.924733,616.992,2589.32,2587.25,0.925817,0.0632354
1344.0,0.927264,617.651,2606.62,2604.54,0.927264,0.0646664
1356.0,0.925746,618.31,2623.89,2621.8,0.925586,0.0629724
1368.0,0.923439,618.97,2641.11,2639.02,0.924085,0.0614555
1380.0,0.926056,619.629,2658.31,2656.21,0.926056,0.0634105
1392.0,0.933944,620.288,2675.46,2673.35,0.921045,0.0583835
1404.0,0.919604,620.948,2692.58,2690.46,0.921566,0.0588885
1416.0,0.923093,621.607,2709.66,2707.54,0.923093,0.0603995
1428.0,0.928996,622.267,2726.71,2724.58,0.923923,0.0612136
1440.0,0.921262,622.926,2743.72,2741.58,0.92231,0.0595846
1452.0,0.919658,623.585,2760.69,2758.55,0.921226,0.0584846
1464.0,0.91921,624.245,2777.63,2775.48,0.920549,0.0577916
1476.0,0.918336,624.904,2794.53,2792.37,0.919409,0.0566356
1488.0,0.916391,625.563,2811.4,2809.23,0.918829,0.0560397
1500.0,0.916518,626.223,2828.23,2826.05,0.918811,0.0560057
1512.0,0.920063,626.882,2845.03,2842.84,0.920008,0.0571867
1524.0,0.921545,627.541,2861.79,2859.59,0.921318,0.0584807
1536.0,0.919358,628.201,2878.52,2876.31,0.919339,0.0564857
1548.0,0.920232,628.86,2895.21,2892.99,0.918973,0.0561038
1560.0,0.926011,629.52,2911.86,2909.64,0.926946,0.0640608
1572.0,0.993174,630.179,2928.48,2926.25,0.993174,0.130273
1584.0,0.955298,630.838,2945.07,2942.83,0.955298,0.0923808
1596.0,1.00865,631.498,2961.62,2959.38,1.00192,0.138987
1608.0,1.00794,632.157,2978.14,2975.89,1.00862,0.145671
1620.0,0.965631,632.816,2994.62,2992.36,0.965631,0.102666
1632.0,0.921453,633.476,3011.07,3008.8,0.921928,0.0589469
1644.0,0.910962,634.135,3027.48,3025.21,0.910824,0.0478269
1656.0,0.908433,634.794,3043.86,3041.58,0.908189,0.0451759
1668.0,0.906952,635.454,3060.21,3057.92,0.906461,0.043432
1680.0,0.90516,636.113,3076.52,3074.22,0.90401,0.040965
1692.0,0.904246,636.772,3092.8,3090.49,0.904246,0.041185
1704.0,0.901288,637.432,3109.04,3106.73,0.905297,0.04222
1716.0,0.903539,638.091,3125.25,3122.93,0.903461,0.040368
1728.0,0.904702,638.751,3141.43,3139.1,0.904176,0.0410671
1740.0,0.906246,639.41,3157.57,3155.24,0.90353,0.0404051
1752.0,0.905922,640.069,3173.68,3171.34,0.903971,0.0408301
1764.0,0.904109,640.729,3189.76,3187.41,0.904109,0.0409521
1776.0,0.902736,641.388,3205.81,3203.45,0.90259,0.0394171
1788.0,0.901452,642.047,3221.82,3219.45,0.901421,0.0382322
1800.0,0.898038,642.707,3237.8,3235.42,0.898174,0.0349692
1812.0,0.897425,643.366,3253.74,3251.36,0.898028,0.0348072
1824.0,0.89985,644.025,3269.66,3267.27,0.900564,0.0373272
1836.0,0.90316,644.685,3285.54,3283.14,0.903355,0.0401022
1848.0,0.904519,645.344,3301.39,3298.98,0.903312,0.0400433
1860.0,0.893891,646.004,3317.2,3314.79,0.893738,0.0304533
1872.0,0.888312,646.663,3332.98,3330.57,0.888312,0.0250113
1884.0,0.883963,647.322,3348.74,3346.31,0.884679,0.0213623
1896.0,0.887093,647.982,3364.46,3362.02,0.883553,0.0202204
1908.0,0.882318,648.641,3380.14,3377.7,0.881245,0.0178975
1920.0,0.87908,649.3,3395.8,3393.35,0.87916,0.0157998
1932.0,0.882914,649.96,3411.42,3408.97,0.877172,0.0138006
1944.0,0.879781,650.619,3427.02,3424.55,0.875,0.0116193
1956.0,0.875775,651.278,3442.58,3440.11,0.876588,0.0131995
1968.0,0.882533,651.938,3458.11,3455.63,0.87455,0.0111555
1980.0,0.873472,652.597,3473.6,3471.12,0.872789,0.0093902
1992.0,0.88257,653.257,3489.07,3486.58,0.884097,0.0206952
2004.0,0.883302,653.916,3504.51,3502.01,0.883302,0.0198981
2016.0,0.869058,654.575,3519.91,3517.4,0.869545,0.00613973
2028.0,0.864635,655.235,3535.28,3532.77,0.865025,0.00161933
2040.0,0.86575,655.894,3550.63,3548.1,0.863825,0.000419256
2047.0,0.864653,656.279,3559.56,3557.04,0.862543,-0.000862742