File: data/processed/processed_data/2024-10-11/2024-10-11_magnesiumsulfateheptahydratepowder_n_n_n_solid_10000_0_5.csv
Pixels #,Intensity (a.u.),Wavelength (nm),Raman shift (cm-1),Raman shift (cm-1) adjusted,Filtered Intensity (a.u.),Baselined Filtered Intensity (a.u.)
0.0,0.803243,543.803,407.968,406.929,0.802506,0.0109228
13.0,0.802018,544.517,432.091,431.041,0.803534,0.0119508
26.0,0.801863,545.231,456.151,455.089,0.801863,0.0102798
39.0,0.832645,545.946,480.148,479.075,0.804441,0.0128578
52.0,0.805195,546.66,504.082,502.998,0.803703,0.0121198
65.0,0.802307,547.374,527.954,526.858,0.802307,0.0107238
78.0,0.803422,548.088,551.763,550.656,0.802424,0.0108408
91.0,0.808991,548.803,575.511,574.393,0.803059,0.0114758
104.0,0.802127,549.517,599.197,598.067,0.804666,0.0130828
117.0,0.801361,550.231,622.821,621.68,0.802259,0.0106758
130.0,0.801852,550.946,646.384,645.232,0.802946,0.0113628
143.0,0.803162,551.66,669.886,668.723,0.803162,0.0115788
156.0,0.80158,552.374,693.327,692.153,0.801212,0.00962882
169.0,0.800953,553.089,716.708,715.523,0.800753,0.00916982
182.0,0.801118,553.803,740.028,738.832,0.801533,0.00994984
195.0,0.800312,554.517,763.289,762.082,0.800312,0.00872891
208.0,0.797429,555.232,786.489,785.271,0.798095,0.00651203
221.0,0.799958,555.946,809.63,808.401,0.799737,0.00815424
234.0,0.801278,556.66,832.711,831.472,0.801278,0.00969546
247.0,0.803322,557.374,855.733,854.483,0.80209,0.0105077
260.0,0.800669,558.089,878.697,877.435,0.799423,0.00784089
273.0,0.808598,558.803,901.601,900.329,0.800251,0.00866915
286.0,0.799006,559.517,924.448,923.165,0.798366,0.00678444
299.0,0.808621,560.232,947.235,945.942,0.80122,0.00963885
312.0,0.806189,560.946,969.965,968.661,0.813089,0.0215083
325.0,0.83982,561.66,992.637,991.322,0.83982,0.0482397
338.0,0.799327,562.375,1015.25,1013.93,0.799327,0.00774719
351.0,0.800356,563.089,1037.81,1036.47,0.79857,0.00699076
364.0,0.799822,563.803,1060.31,1058.96,0.801863,0.0102844
377.0,0.799296,564.518,1082.75,1081.39,0.798667,0.00708904
390.0,0.799433,565.232,1105.14,1103.77,0.79926,0.00768269
403.0,0.796761,565.946,1127.47,1126.09,0.796707,0.00513056
416.0,0.792762,566.66,1149.74,1148.35,0.795746,0.00417099
429.0,0.794538,567.375,1171.96,1170.56,0.79503,0.00345695
442.0,0.794201,568.089,1194.12,1192.71,0.794864,0.00329347
455.0,0.793899,568.803,1216.23,1214.81,0.794805,0.00323744
468.0,0.793655,569.518,1238.28,1236.85,0.793655,0.00209082
481.0,0.794094,570.232,1260.27,1258.83,0.793857,0.00229657
494.0,0.810734,570.946,1282.21,1280.76,0.795561,0.00400466
507.0,0.791818,571.661,1304.1,1302.63,0.792237,0.000685062
520.0,0.793579,572.375,1325.93,1324.45,0.793579,0.00203162
533.0,0.79102,573.089,1347.7,1346.22,0.792236,0.000693412
546.0,0.791872,573.804,1369.43,1367.93,0.791872,0.000334288
559.0,0.792149,574.518,1391.09,1389.59,0.79262,0.0010872
572.0,0.789866,575.232,1412.71,1411.19,0.790254,-0.00127392
585.0,0.80728,575.946,1434.27,1432.74,0.79102,-0.000503076
598.0,0.791756,576.661,1455.78,1454.24,0.791738,0.000219787
611.0,0.793767,577.375,1477.23,1475.69,0.791777,0.000263585
624.0,0.792934,578.089,1498.63,1497.08,0.792225,0.000716358
637.0,0.790993,578.804,1519.98,1518.41,0.790121,-0.00138293
650.0,0.789925,579.518,1541.27,1539.7,0.789611,-0.00188846
663.0,0.79093,580.232,1562.52,1560.93,0.79058,-0.000915251
676.0,0.78819,580.947,1583.71,1582.11,0.788847,-0.00264423
689.0,0.788374,581.661,1604.85,1603.24,0.789098,-0.00238952
702.0,0.794975,582.375,1625.93,1624.32,0.788342,-0.0031422
715.0,0.7897,583.09,1646.97,1645.34,0.7897,-0.00178113
728.0,0.789365,583.804,1667.95,1666.32,0.790734,-0.000744298
741.0,0.789777,584.518,1688.88,1687.24,0.790388,-0.00108765
754.0,0.791078,585.232,1709.77,1708.11,0.790676,-0.000797157
767.0,0.789317,585.947,1730.6,1728.93,0.789317,-0.00215398
780.0,0.787758,586.661,1751.38,1749.7,0.787833,-0.00363616
793.0,0.786851,587.375,1772.1,1770.42,0.789192,-0.00227573
806.0,0.78665,588.09,1792.78,1791.09,0.788227,-0.00323972
819.0,0.787644,588.804,1813.41,1811.71,0.787644,-0.00382226
832.0,0.787413,589.518,1833.99,1832.28,0.787413,-0.0040533
845.0,0.793462,590.233,1854.52,1852.8,0.792564,0.00109715
858.0,0.78778,590.947,1875,1873.27,0.78778,-0.00368775
871.0,0.786969,591.661,1895.43,1893.69,0.789498,-0.00197103
884.0,0.789324,592.376,1915.81,1914.06,0.788866,-0.00260468
897.0,0.788986,593.09,1936.14,1934.38,0.788272,-0.00320079
910.0,0.789735,593.804,1956.42,1954.65,0.789161,-0.00231446
923.0,0.787974,594.518,1976.66,1974.88,0.788304,-0.00317456
936.0,0.78551,595.233,1996.84,1995.05,0.788572,-0.00291017
949.0,0.794661,595.947,2016.98,2015.18,0.788976,-0.0025102
962.0,0.790338,596.661,2037.07,2035.26,0.787538,-0.0039526
975.0,0.793634,597.376,2057.11,2055.29,0.78899,-0.00250548
988.0,0.788403,598.09,2077.1,2075.27,0.788403,-0.00309772
1001.0,0.789572,598.804,2097.05,2095.21,0.788775,-0.0027314
1014.0,0.787851,599.519,2116.94,2115.1,0.787851,-0.00366147
1027.0,0.790134,600.233,2136.79,2134.94,0.788475,-0.00304399
1040.0,0.793992,600.947,2156.6,2154.73,0.789107,-0.00241888
1053.0,0.788362,601.662,2176.35,2174.48,0.788517,-0.00301613
1066.0,0.788423,602.376,2196.06,2194.18,0.788423,-0.0031178
1079.0,0.791496,603.09,2215.72,2213.83,0.788726,-0.00282285
1092.0,0.79036,603.804,2235.34,2233.44,0.789436,-0.00212115
1105.0,0.793608,604.519,2254.91,2253,0.789869,-0.0016966
1118.0,0.793669,605.233,2274.43,2272.51,0.793669,0.00209483
1131.0,0.790354,605.947,2293.91,2291.98,0.790354,-0.00122876
1144.0,0.792552,606.662,2313.34,2311.4,0.791297,-0.000294443
1157.0,0.79004,607.376,2332.73,2330.78,0.793039,0.00143885
1170.0,0.788992,608.09,2352.07,2350.11,0.789305,-0.0023039
1183.0,0.7927,608.805,2371.36,2369.4,0.789343,-0.00227474
1196.0,0.791943,609.519,2390.61,2388.64,0.792472,0.000845308
1209.0,0.791953,610.233,2409.82,2407.83,0.791473,-0.000162631
1222.0,0.830423,610.948,2428.97,2426.98,0.790979,-0.000665682
1235.0,0.791144,611.662,2448.09,2446.09,0.790933,-0.000720869
1248.0,0.791723,612.376,2467.16,2465.15,0.792396,0.000732816
1261.0,0.794911,613.09,2486.19,2484.17,0.789601,-0.00207142
1274.0,0.790817,613.805,2505.17,2503.14,0.791302,-0.000379623
1287.0,0.806,614.519,2524.1,2522.07,0.792103,0.000412156
1300.0,0.791789,615.233,2543,2540.95,0.791789,8.89048e-05
1313.0,0.791037,615.948,2561.85,2559.79,0.791401,-0.000308296
1326.0,0.793764,616.662,2580.65,2578.59,0.791622,-9.64248e-05
1339.0,0.793278,617.376,2599.42,2597.34,0.793278,0.00155051
1352.0,0.792562,618.091,2618.13,2616.05,0.792562,0.000825566
1365.0,0.790938,618.805,2636.81,2634.72,0.791284,-0.000461203
1378.0,0.794885,619.519,2655.44,2653.34,0.793991,0.00223713
1391.0,0.792078,620.234,2674.03,2671.93,0.795133,0.00337067
1404.0,0.789351,620.948,2692.58,2690.46,0.792153,0.000382465
1417.0,0.795063,621.662,2711.08,2708.96,0.794493,0.00271435
1430.0,0.794041,622.376,2729.55,2727.41,0.794041,0.00225448
1443.0,0.794123,623.091,2747.97,2745.82,0.794357,0.00256281
1456.0,0.793659,623.805,2766.34,2764.19,0.793494,0.00169241
1469.0,0.79251,624.519,2784.68,2782.52,0.791727,-8.18719e-05
1482.0,0.791679,625.234,2802.97,2800.8,0.792614,0.000797887
1495.0,0.793052,625.948,2821.22,2819.05,0.792378,0.00055485
1508.0,0.795756,626.662,2839.43,2837.25,0.793327,0.00149699
1521.0,0.792847,627.377,2857.6,2855.41,0.792847,0.00101032
1534.0,0.791348,628.091,2875.73,2873.53,0.793644,0.00180081
1547.0,0.791642,628.805,2893.82,2891.61,0.793195,0.00134554
1560.0,0.792608,629.52,2911.86,2909.64,0.792746,0.000890495
1573.0,0.801685,630.234,2929.87,2927.64,0.796358,0.0044967
1586.0,0.797893,630.948,2947.83,2945.59,0.795125,0.00325816
1599.0,0.793048,631.662,2965.75,2963.51,0.794459,0.00258699
1612.0,0.79226,632.377,2983.63,2981.38,0.793339,0.00146223
1625.0,0.795675,633.091,3001.48,2999.21,0.795675,0.00379379
1638.0,0.794874,633.805,3019.28,3017.01,0.7949,0.00301493
1651.0,0.795884,634.52,3037.04,3034.76,0.796487,0.00459865
1664.0,0.793461,635.234,3054.76,3052.47,0.797357,0.00546598
1677.0,0.794413,635.948,3072.44,3070.15,0.796327,0.00443399
1690.0,0.80014,636.663,3090.09,3087.78,0.797224,0.00532969
1703.0,0.799855,637.377,3107.69,3105.38,0.799855,0.00796001
1716.0,0.800151,638.091,3125.25,3122.93,0.800399,0.00850357
1729.0,0.803485,638.806,3142.78,3140.45,0.802926,0.0110301
1742.0,0.803481,639.52,3160.26,3157.92,0.804582,0.0126857
1755.0,0.806571,640.234,3177.71,3175.36,0.807384,0.0154872
1768.0,0.812558,640.948,3195.11,3192.76,0.812558,0.0206608
1781.0,0.813766,641.663,3212.48,3210.12,0.813894,0.0219964
1794.0,0.812724,642.377,3229.81,3227.44,0.812986,0.0210879
1807.0,0.815792,643.091,3247.1,3244.72,0.815792,0.0238935
1820.0,0.814818,643.806,3264.36,3261.97,0.814362,0.022463
1833.0,0.813853,644.52,3281.57,3279.18,0.813739,0.0218396
1846.0,0.828581,645.234,3298.75,3296.34,0.814945,0.0230452
1859.0,0.812255,645.949,3315.88,3313.47,0.812888,0.0209877
1872.0,0.812988,646.663,3332.98,3330.57,0.811851,0.0199503
1885.0,0.810814,647.377,3350.05,3347.62,0.810814,0.0189128
1898.0,0.812475,648.092,3367.07,3364.64,0.810275,0.0183734
1911.0,0.809379,648.806,3384.06,3381.62,0.809379,0.017477
1924.0,0.8094,649.52,3401.01,3398.56,0.807573,0.0156705
1937.0,0.807176,650.234,3417.92,3415.47,0.808398,0.0164951
1950.0,0.807466,650.949,3434.8,3432.33,0.80858,0.0166766
1963.0,0.805434,651.663,3451.64,3449.16,0.805682,0.0137782
1976.0,0.805458,652.377,3468.44,3465.96,0.806335,0.0144307
1989.0,0.806123,653.092,3485.21,3482.72,0.807146,0.0152413
2002.0,0.803094,653.806,3501.93,3499.44,0.803893,0.0119879
2015.0,0.803284,654.52,3518.63,3516.12,0.80184,0.00993443
2028.0,0.799244,655.235,3535.28,3532.77,0.800115,0.00820899
2041.0,0.801289,655.949,3551.9,3549.38,0.799732,0.00782565
2047.0,0.800115,656.279,3559.56,3557.04,0.798388,0.0064816