File: data/processed/processed_data/2024-10-11/2024-10-11_1Mmagnesiumsulfateheptahydratesolution_n_n_n_solid_10000_0_5.csv
Pixels #,Intensity (a.u.),Wavelength (nm),Raman shift (cm-1),Raman shift (cm-1) adjusted,Filtered Intensity (a.u.),Baselined Filtered Intensity (a.u.)
0.0,0.787214,543.803,407.968,406.929,0.786672,-0.00496408
13.0,0.786694,544.517,432.091,431.041,0.788052,-0.00358445
26.0,0.785831,545.231,456.151,455.089,0.785831,-0.00580649
39.0,0.817653,545.946,480.148,479.075,0.788412,-0.00322732
52.0,0.790311,546.66,504.082,502.998,0.788992,-0.00264976
65.0,0.78825,547.374,527.954,526.858,0.788395,-0.00324967
78.0,0.789779,548.088,551.763,550.656,0.788457,-0.00319106
91.0,0.795555,548.803,575.511,574.393,0.790535,-0.00111686
104.0,0.789574,549.517,599.197,598.067,0.790887,-0.000768996
117.0,0.788563,550.231,622.821,621.68,0.789717,-0.00194338
130.0,0.790061,550.946,646.384,645.232,0.790882,-0.000783053
143.0,0.791552,551.66,669.886,668.723,0.791307,-0.000362985
156.0,0.791017,552.374,693.327,692.153,0.791017,-0.000658119
169.0,0.791048,553.089,716.708,715.523,0.791048,-0.000632406
182.0,0.79293,553.803,740.028,738.832,0.79293,0.00124416
195.0,0.793529,554.517,763.289,762.082,0.793529,0.00183778
208.0,0.792759,555.232,786.489,785.271,0.793759,0.00206255
221.0,0.797438,555.946,809.63,808.401,0.796903,0.00520145
234.0,0.799017,556.66,832.711,831.472,0.799057,0.00735036
247.0,0.800952,557.374,855.733,854.483,0.799061,0.00734927
260.0,0.797815,558.089,878.697,877.435,0.796416,0.00469918
273.0,0.805212,558.803,901.601,900.329,0.798137,0.00641509
286.0,0.796822,559.517,924.448,923.165,0.795782,0.00405499
299.0,0.806603,560.232,947.235,945.942,0.799248,0.00751593
312.0,0.822765,560.946,969.965,968.661,0.837983,0.0462459
325.0,0.823114,561.66,992.637,991.322,0.823114,0.0313718
338.0,0.798161,562.375,1015.25,1013.93,0.797321,0.00557375
351.0,0.797894,563.089,1037.81,1036.47,0.795936,0.0041837
364.0,0.794949,563.803,1060.31,1058.96,0.798007,0.00624969
377.0,0.79781,564.518,1082.75,1081.39,0.796705,0.00494269
390.0,0.799105,565.232,1105.14,1103.77,0.798209,0.00644169
403.0,0.79793,565.946,1127.47,1126.09,0.79783,0.00605769
416.0,0.793796,566.66,1149.74,1148.35,0.795416,0.00363868
429.0,0.794469,567.375,1171.96,1170.56,0.795617,0.00383472
442.0,0.794716,568.089,1194.12,1192.71,0.794959,0.00317181
455.0,0.794664,568.803,1216.23,1214.81,0.795703,0.00391099
468.0,0.794007,569.518,1238.28,1236.85,0.794007,0.00221023
481.0,0.794547,570.232,1260.27,1258.83,0.794547,0.00274561
494.0,0.811241,570.946,1282.21,1280.76,0.795523,0.00371711
507.0,0.792473,571.661,1304.1,1302.63,0.793583,0.00177269
520.0,0.795459,572.375,1325.93,1324.45,0.795459,0.00364441
533.0,0.792688,573.089,1347.7,1346.22,0.79344,0.00162126
546.0,0.794092,573.804,1369.43,1367.93,0.794092,0.0022692
559.0,0.794043,574.518,1391.09,1389.59,0.794088,0.00226128
572.0,0.792533,575.232,1412.71,1411.19,0.792533,0.000702535
585.0,0.810228,575.946,1434.27,1432.74,0.794251,0.00241694
598.0,0.795128,576.661,1455.78,1454.24,0.793983,0.00214546
611.0,0.796718,577.375,1477.23,1475.69,0.794324,0.00248308
624.0,0.797113,578.089,1498.63,1497.08,0.796178,0.0043338
637.0,0.794184,578.804,1519.98,1518.41,0.793671,0.00182364
650.0,0.793944,579.518,1541.27,1539.7,0.793944,0.00209368
663.0,0.79572,580.232,1562.52,1560.93,0.795136,0.00328288
676.0,0.793688,580.947,1583.71,1582.11,0.794263,0.00240715
689.0,0.795539,581.661,1604.85,1603.24,0.795706,0.00384754
702.0,0.802435,582.375,1625.93,1624.32,0.79587,0.00400898
715.0,0.798087,583.09,1646.97,1645.34,0.797352,0.00548843
728.0,0.79568,583.804,1667.95,1666.32,0.796881,0.00501489
741.0,0.795877,584.518,1688.88,1687.24,0.796712,0.00484334
754.0,0.796721,585.232,1709.77,1708.11,0.795935,0.00406384
767.0,0.79401,585.947,1730.6,1728.93,0.79401,0.00213648
780.0,0.792323,586.661,1751.38,1749.7,0.792584,0.000708294
793.0,0.791803,587.375,1772.1,1770.42,0.793639,0.00176122
806.0,0.791306,588.09,1792.78,1791.09,0.792078,0.000198196
819.0,0.79174,588.804,1813.41,1811.71,0.79174,-0.000141819
832.0,0.791325,589.518,1833.99,1832.28,0.791468,-0.000415805
845.0,0.798534,590.233,1854.52,1852.8,0.796158,0.00427224
858.0,0.792039,590.947,1875,1873.27,0.792039,0.00015132
871.0,0.79213,591.661,1895.43,1893.69,0.79363,0.00174047
884.0,0.793827,592.376,1915.81,1914.06,0.793047,0.00115572
897.0,0.793237,593.09,1936.14,1934.38,0.792621,0.000728035
910.0,0.793718,593.804,1956.42,1954.65,0.793459,0.00156439
923.0,0.792544,594.518,1976.66,1974.88,0.792944,0.00104781
936.0,0.789926,595.233,1996.84,1995.05,0.792947,0.00104939
949.0,0.799214,595.947,2016.98,2015.18,0.793561,0.00166204
962.0,0.795514,596.661,2037.07,2035.26,0.792331,0.000430767
975.0,0.797847,597.376,2057.11,2055.29,0.793994,0.0020925
988.0,0.792879,598.09,2077.1,2075.27,0.793419,0.0015163
1001.0,0.793346,598.804,2097.05,2095.21,0.793346,0.00144215
1014.0,0.791755,599.519,2116.94,2115.1,0.791755,-0.00014991
1027.0,0.793959,600.233,2136.79,2134.94,0.793959,0.0020531
1040.0,0.798101,600.947,2156.6,2154.73,0.793246,0.00133927
1053.0,0.792596,601.662,2176.35,2174.48,0.792708,0.000800485
1066.0,0.792455,602.376,2196.06,2194.18,0.792455,0.000546764
1079.0,0.795309,603.09,2215.72,2213.83,0.792132,0.000223204
1092.0,0.793339,603.804,2235.34,2233.44,0.79267,0.000760778
1105.0,0.795433,604.519,2254.91,2253,0.792673,0.000763368
1118.0,0.796215,605.233,2274.43,2272.51,0.796215,0.00430501
1131.0,0.792671,605.947,2293.91,2291.98,0.79255,0.000639695
1144.0,0.795147,606.662,2313.34,2311.4,0.792941,0.00103047
1157.0,0.79207,607.376,2332.73,2330.78,0.794561,0.00265033
1170.0,0.790953,608.09,2352.07,2350.11,0.79101,-0.000900759
1183.0,0.794406,608.805,2371.36,2369.4,0.790712,-0.00119883
1196.0,0.793517,609.519,2390.61,2388.64,0.794063,0.00215215
1209.0,0.792447,610.233,2409.82,2407.83,0.792205,0.000294224
1222.0,0.831622,610.948,2428.97,2426.98,0.791792,-0.000118714
1235.0,0.791412,611.662,2448.09,2446.09,0.791821,-8.97239e-05
1248.0,0.792105,612.376,2467.16,2465.15,0.793781,0.0018702
1261.0,0.795383,613.09,2486.19,2484.17,0.790481,-0.00142986
1274.0,0.790803,613.805,2505.17,2503.14,0.791611,-0.000299935
1287.0,0.80902,614.519,2524.1,2522.07,0.79208,0.000168904
1300.0,0.791911,615.233,2543,2540.95,0.791911,-3.43494e-07
1313.0,0.790531,615.948,2561.85,2559.79,0.791161,-0.000750607
1326.0,0.792977,616.662,2580.65,2578.59,0.791617,-0.000294946
1339.0,0.792594,617.376,2599.42,2597.34,0.792594,0.000681646
1352.0,0.791938,618.091,2618.13,2616.05,0.791938,2.52064e-05
1365.0,0.790308,618.805,2636.81,2634.72,0.790549,-0.00136422
1378.0,0.793903,619.519,2655.44,2653.34,0.793175,0.00126129
1391.0,0.790755,620.234,2674.03,2671.93,0.794032,0.00211783
1404.0,0.788432,620.948,2692.58,2690.46,0.79089,-0.00102466
1417.0,0.793064,621.662,2711.08,2708.96,0.793064,0.00114875
1430.0,0.792895,622.376,2729.55,2727.41,0.792895,0.000979167
1443.0,0.793024,623.091,2747.97,2745.82,0.79324,0.00132356
1456.0,0.792315,623.805,2766.34,2764.19,0.792315,0.000397987
1469.0,0.791661,624.519,2784.68,2782.52,0.791134,-0.000783668
1482.0,0.790802,625.234,2802.97,2800.8,0.791025,-0.000893452
1495.0,0.792124,625.948,2821.22,2819.05,0.791822,-9.72604e-05
1508.0,0.795132,626.662,2839.43,2837.25,0.792887,0.000966926
1521.0,0.793068,627.377,2857.6,2855.41,0.792375,0.000454123
1534.0,0.791583,628.091,2875.73,2873.53,0.794027,0.00210546
1547.0,0.792672,628.805,2893.82,2891.61,0.794878,0.00295601
1560.0,0.794118,629.52,2911.86,2909.64,0.794751,0.00282873
1573.0,0.804115,630.234,2929.87,2927.64,0.799229,0.00730664
1586.0,0.801513,630.948,2947.83,2945.59,0.798438,0.00651564
1599.0,0.798082,631.662,2965.75,2963.51,0.799616,0.00769364
1612.0,0.799325,632.377,2983.63,2981.38,0.799337,0.00741464
1625.0,0.803933,633.091,3001.48,2999.21,0.804536,0.0126136
1638.0,0.806275,633.805,3019.28,3017.01,0.806275,0.0143526
1651.0,0.810823,634.52,3037.04,3034.76,0.810823,0.0189006
1664.0,0.813435,635.234,3054.76,3052.47,0.816047,0.0241246
1677.0,0.818367,635.948,3072.44,3070.15,0.819932,0.0280096
1690.0,0.829985,636.663,3090.09,3087.78,0.828675,0.0367526
1703.0,0.835924,637.377,3107.69,3105.38,0.835924,0.0440016
1716.0,0.844219,638.091,3125.25,3122.93,0.844939,0.0530166
1729.0,0.854298,638.806,3142.78,3140.45,0.854298,0.0623756
1742.0,0.862176,639.52,3160.26,3157.92,0.864605,0.0726826
1755.0,0.872722,640.234,3177.71,3175.36,0.873275,0.0813526
1768.0,0.882874,640.948,3195.11,3192.76,0.883034,0.0911116
1781.0,0.890661,641.663,3212.48,3210.12,0.890661,0.0987386
1794.0,0.89604,642.377,3229.81,3227.44,0.89604,0.104118
1807.0,0.902286,643.091,3247.1,3244.72,0.902286,0.110364
1820.0,0.904317,643.806,3264.36,3261.97,0.903963,0.112041
1833.0,0.905599,644.52,3281.57,3279.18,0.903783,0.111861
1846.0,0.921214,645.234,3298.75,3296.34,0.909344,0.117422
1859.0,0.908783,645.949,3315.88,3313.47,0.910599,0.118677
1872.0,0.914209,646.663,3332.98,3330.57,0.912226,0.120304
1885.0,0.917489,647.377,3350.05,3347.62,0.917489,0.125567
1898.0,0.923462,648.092,3367.07,3364.64,0.920019,0.128097
1911.0,0.923659,648.806,3384.06,3381.62,0.923659,0.131737
1924.0,0.925485,649.52,3401.01,3398.56,0.9244,0.132478
1937.0,0.924311,650.234,3417.92,3415.47,0.925476,0.133554
1950.0,0.923545,650.949,3434.8,3432.33,0.923885,0.131963
1963.0,0.916824,651.663,3451.64,3449.16,0.917863,0.125941
1976.0,0.910217,652.377,3468.44,3465.96,0.911034,0.119112
1989.0,0.902465,653.092,3485.21,3482.72,0.903635,0.111713
2002.0,0.890741,653.806,3501.93,3499.44,0.892515,0.100593
2015.0,0.883716,654.52,3518.63,3516.12,0.882601,0.0906786
2028.0,0.872054,655.235,3535.28,3532.77,0.871261,0.0793386
2041.0,0.864093,655.949,3551.9,3549.38,0.864082,0.0721596
2047.0,0.860437,656.279,3559.56,3557.04,0.859018,0.0670956