File: data/processed/processed_data/2024-10-11/2024-10-11_calciumsulfatepowder_n_n_n_solid_10000_0_5.csv
Pixels #,Intensity (a.u.),Wavelength (nm),Raman shift (cm-1),Raman shift (cm-1) adjusted,Filtered Intensity (a.u.),Baselined Filtered Intensity (a.u.)
0.0,0.795472,543.803,407.968,406.929,0.795472,-0.00815234
12.0,0.800327,544.462,430.238,429.188,0.794862,-0.00876293
24.0,0.793184,545.121,452.454,451.393,0.794051,-0.00957559
36.0,0.794751,545.781,474.616,473.545,0.795712,-0.00791745
48.0,0.799424,546.44,496.725,495.643,0.797913,-0.0057203
60.0,0.800742,547.099,518.78,517.688,0.798082,-0.00555594
72.0,0.799626,547.759,540.782,539.68,0.799626,-0.00401717
84.0,0.799928,548.418,562.732,561.619,0.799857,-0.00379196
96.0,0.800402,549.078,584.628,583.506,0.800402,-0.00325311
108.0,0.802043,549.737,606.472,605.339,0.801598,-0.00206363
120.0,0.800333,550.396,628.264,627.121,0.801444,-0.00222435
132.0,0.802702,551.056,650.004,648.85,0.800558,-0.00311734
144.0,0.803077,551.715,671.691,670.528,0.803337,-0.0003458
156.0,0.800589,552.374,693.327,692.153,0.79919,-0.00450052
168.0,0.799879,553.034,714.912,713.727,0.800283,-0.00341561
180.0,0.801985,553.693,736.444,735.25,0.80156,-0.00214719
192.0,0.804264,554.352,757.926,756.722,0.801763,-0.00195304
204.0,0.803461,555.012,779.357,778.142,0.803461,-0.00026407
216.0,0.807687,555.671,800.737,799.512,0.807687,0.00395286
228.0,0.809305,556.33,822.066,820.831,0.809827,0.00608422
240.0,0.812127,556.99,843.344,842.1,0.814112,0.0103615
252.0,0.815677,557.649,864.572,863.318,0.816142,0.0123849
264.0,0.81598,558.309,885.751,884.486,0.817812,0.0140492
276.0,0.819185,558.968,906.879,905.604,0.818294,0.0145259
288.0,0.816783,559.627,927.957,926.673,0.818499,0.0147255
300.0,0.821366,560.287,948.986,947.691,0.82149,0.0177112
312.0,0.820329,560.946,969.965,968.661,0.821569,0.0177848
324.0,0.832368,561.605,990.895,989.581,0.832422,0.0286325
336.0,0.988052,562.265,1011.78,1010.45,0.988052,0.184257
348.0,0.822272,562.924,1032.61,1031.27,0.823479,0.0196788
360.0,0.822991,563.583,1053.39,1052.05,0.822167,0.0183615
372.0,0.822696,564.243,1074.13,1072.77,0.822833,0.0190222
384.0,0.824043,564.902,1094.81,1093.45,0.824043,0.0202268
396.0,0.832981,565.562,1115.45,1114.08,0.831899,0.0280775
408.0,0.865233,566.221,1136.04,1134.66,0.860567,0.0567401
420.0,0.826422,566.88,1156.58,1155.19,0.826337,0.0225048
432.0,0.825241,567.54,1177.08,1175.68,0.825241,0.0214035
444.0,0.822948,568.199,1197.52,1196.11,0.82093,0.0170871
456.0,0.822826,568.858,1217.92,1216.5,0.822826,0.0189778
468.0,0.821173,569.518,1238.28,1236.85,0.821269,0.0174155
480.0,0.821602,570.177,1258.58,1257.14,0.822879,0.0190201
492.0,0.821711,570.836,1278.84,1277.39,0.821924,0.0180598
504.0,0.820592,571.496,1299.05,1297.59,0.821981,0.0181115
516.0,0.821898,572.155,1319.22,1317.75,0.822993,0.0191181
528.0,0.823205,572.815,1339.33,1337.86,0.823248,0.0193678
540.0,0.822078,573.474,1359.41,1357.92,0.822286,0.0184004
552.0,0.827369,574.133,1379.43,1377.94,0.823537,0.0196461
564.0,0.822084,574.793,1399.41,1397.91,0.82277,0.0188738
576.0,0.825149,575.452,1419.35,1417.83,0.823148,0.0192464
588.0,0.825364,576.111,1439.24,1437.71,0.82257,0.0186631
600.0,0.831155,576.771,1459.08,1457.54,0.824604,0.0206918
612.0,0.826124,577.43,1478.88,1477.33,0.826124,0.0222064
624.0,0.827067,578.089,1498.63,1497.08,0.826556,0.0226331
636.0,0.824735,578.749,1518.34,1516.77,0.824712,0.0207837
648.0,0.824016,579.408,1538,1536.43,0.823775,0.0198414
660.0,0.824516,580.067,1557.62,1556.04,0.825432,0.0214931
672.0,0.901029,580.727,1577.19,1575.6,0.824502,0.0205577
684.0,0.824428,581.386,1596.72,1595.12,0.824963,0.0210134
696.0,0.824472,582.046,1616.21,1614.6,0.824472,0.0205171
708.0,0.828794,582.705,1635.65,1634.03,0.826732,0.0227717
720.0,0.827519,583.364,1655.04,1653.42,0.826878,0.0229124
732.0,0.827641,584.024,1674.4,1672.76,0.826184,0.022213
744.0,0.826319,584.683,1693.71,1692.06,0.826319,0.0223427
756.0,0.827829,585.342,1712.97,1711.32,0.827829,0.0238474
768.0,0.827798,586.002,1732.2,1730.53,0.827077,0.02309
780.0,0.825831,586.661,1751.38,1749.7,0.82606,0.0220677
792.0,0.828291,587.32,1770.51,1768.83,0.827869,0.0238714
804.0,0.827755,587.98,1789.61,1787.91,0.826731,0.022728
816.0,0.828193,588.639,1808.66,1806.96,0.827883,0.0238747
828.0,0.82966,589.299,1827.66,1825.96,0.828003,0.0239893
840.0,0.826668,589.958,1846.63,1844.91,0.826668,0.022649
852.0,0.827548,590.617,1865.55,1863.83,0.829122,0.0250977
864.0,0.827213,591.277,1884.43,1882.7,0.831391,0.0273613
876.0,0.829783,591.936,1903.27,1901.53,0.827845,0.02381
888.0,0.832106,592.595,1922.07,1920.32,0.829392,0.0253517
900.0,0.829657,593.255,1940.83,1939.06,0.829154,0.0251083
912.0,0.829162,593.914,1959.54,1957.77,0.829162,0.025111
924.0,0.828274,594.573,1978.21,1976.43,0.829362,0.0253057
936.0,0.826279,595.233,1996.84,1995.05,0.829276,0.0252143
948.0,0.829854,595.892,2015.43,2013.63,0.829854,0.025787
960.0,0.827724,596.551,2033.98,2032.17,0.827724,0.0236516
972.0,0.830471,597.211,2052.49,2050.67,0.830471,0.0263933
984.0,0.829815,597.87,2070.95,2069.13,0.829815,0.025732
996.0,0.834376,598.53,2089.38,2087.55,0.828611,0.0245226
1008.0,0.832715,599.189,2107.77,2105.93,0.828438,0.0243443
1020.0,0.829529,599.848,2126.11,2124.26,0.831216,0.027117
1032.0,0.82972,600.508,2144.42,2142.56,0.82972,0.0256156
1044.0,0.83961,601.167,2162.68,2160.81,0.830443,0.0263333
1056.0,0.828774,601.826,2180.9,2179.03,0.828774,0.0246589
1068.0,0.830079,602.486,2199.09,2197.21,0.830048,0.0259276
1080.0,0.830704,603.145,2217.23,2215.34,0.830704,0.0265783
1092.0,0.830625,603.804,2235.34,2233.44,0.829808,0.0256769
1104.0,0.830152,604.464,2253.41,2251.5,0.83056,0.0264236
1116.0,0.828831,605.123,2271.43,2269.51,0.831297,0.0271553
1128.0,0.830692,605.783,2289.42,2287.49,0.830484,0.0263369
1140.0,0.830372,606.442,2307.37,2305.43,0.83082,0.0266676
1152.0,0.829765,607.101,2325.28,2323.33,0.82893,0.0247722
1164.0,0.829651,607.761,2343.15,2341.19,0.829212,0.0250489
1176.0,0.82869,608.42,2360.98,2359.02,0.830696,0.0265276
1188.0,0.829733,609.079,2378.77,2376.8,0.830174,0.0260002
1200.0,0.832252,609.739,2396.52,2394.55,0.832252,0.0280729
1212.0,0.83049,610.398,2414.24,2412.26,0.829889,0.0257046
1224.0,0.829268,611.057,2431.92,2429.93,0.82855,0.0243602
1236.0,0.827161,611.717,2449.56,2447.56,0.828599,0.0244039
1248.0,0.829298,612.376,2467.16,2465.15,0.830822,0.0266216
1260.0,0.830553,613.036,2484.72,2482.71,0.830553,0.0263472
1272.0,0.829365,613.695,2502.25,2500.22,0.829365,0.0251539
1284.0,0.827326,614.354,2519.74,2517.7,0.827326,0.0231095
1296.0,0.830718,615.014,2537.19,2535.15,0.829647,0.0254252
1308.0,0.827494,615.673,2554.6,2552.55,0.82835,0.0241229
1320.0,0.833867,616.332,2571.98,2569.92,0.828931,0.0246985
1332.0,0.828146,616.992,2589.32,2587.25,0.82774,0.0235022
1344.0,0.829365,617.651,2606.62,2604.54,0.829365,0.0251219
1356.0,0.828335,618.31,2623.89,2621.8,0.828425,0.0241765
1368.0,0.827734,618.97,2641.11,2639.02,0.827734,0.0234802
1380.0,0.831829,619.629,2658.31,2656.21,0.830397,0.0261378
1392.0,0.839079,620.288,2675.46,2673.35,0.827018,0.0227535
1404.0,0.825302,620.948,2692.58,2690.46,0.8274,0.0231302
1416.0,0.829108,621.607,2709.66,2707.54,0.829108,0.0248328
1428.0,0.83582,622.267,2726.71,2724.58,0.828628,0.0243475
1440.0,0.826982,622.926,2743.72,2741.58,0.828175,0.0238892
1452.0,0.825465,623.585,2760.69,2758.55,0.825819,0.0215278
1464.0,0.825227,624.245,2777.63,2775.48,0.826634,0.0223375
1476.0,0.824956,624.904,2794.53,2792.37,0.824956,0.0206541
1488.0,0.823192,625.563,2811.4,2809.23,0.825975,0.0216678
1500.0,0.822489,626.223,2828.23,2826.05,0.824726,0.0204135
1512.0,0.824833,626.882,2845.03,2842.84,0.824971,0.0206531
1524.0,0.825333,627.541,2861.79,2859.59,0.825099,0.0207758
1536.0,0.824204,628.201,2878.52,2876.31,0.824204,0.0198755
1548.0,0.824225,628.86,2895.21,2892.99,0.824225,0.0198911
1560.0,0.823753,629.52,2911.86,2909.64,0.82425,0.0199108
1572.0,0.823889,630.179,2928.48,2926.25,0.827687,0.0233424
1584.0,0.824671,630.838,2945.07,2942.83,0.82472,0.0203701
1596.0,0.836012,631.498,2961.62,2959.38,0.827405,0.0230498
1608.0,0.821866,632.157,2978.14,2975.89,0.823612,0.0192514
1620.0,0.821883,632.816,2994.62,2992.36,0.823054,0.0186881
1632.0,0.823933,633.476,3011.07,3008.8,0.824248,0.0198768
1644.0,0.822893,634.135,3027.48,3025.21,0.822447,0.0180704
1656.0,0.822546,634.794,3043.86,3041.58,0.822546,0.0181641
1668.0,0.821162,635.454,3060.21,3057.92,0.821689,0.0173018
1680.0,0.820999,636.113,3076.52,3074.22,0.82028,0.0158875
1692.0,0.820408,636.772,3092.8,3090.49,0.820408,0.0160103
1704.0,0.817244,637.432,3109.04,3106.73,0.82087,0.0164677
1716.0,0.820316,638.091,3125.25,3122.93,0.820208,0.0158012
1728.0,0.820555,638.751,3141.43,3139.1,0.820284,0.015873
1740.0,0.821363,639.41,3157.57,3155.24,0.819492,0.0150772
1752.0,0.820991,640.069,3173.68,3171.34,0.819843,0.015425
1764.0,0.818672,640.729,3189.76,3187.41,0.818926,0.0145054
1776.0,0.819474,641.388,3205.81,3203.45,0.819474,0.0150515
1788.0,0.82191,642.047,3221.82,3219.45,0.820833,0.0164092
1800.0,0.820379,642.707,3237.8,3235.42,0.820379,0.015954
1812.0,0.82097,643.366,3253.74,3251.36,0.82097,0.0165439
1824.0,0.821768,644.025,3269.66,3267.27,0.822161,0.0177337
1836.0,0.820213,644.685,3285.54,3283.14,0.820631,0.0162026
1848.0,0.825835,645.344,3301.39,3298.98,0.824206,0.0197766
1860.0,0.82397,646.004,3317.2,3314.79,0.82337,0.0189397
1872.0,0.825303,646.663,3332.98,3330.57,0.824504,0.0200727
1884.0,0.822812,647.322,3348.74,3346.31,0.825502,0.0210697
1896.0,0.831372,647.982,3364.46,3362.02,0.827894,0.0234607
1908.0,0.835033,648.641,3380.14,3377.7,0.835033,0.0305987
1920.0,0.853965,649.3,3395.8,3393.35,0.854592,0.0501567
1932.0,0.864095,649.96,3411.42,3408.97,0.859927,0.0554908
1944.0,0.846435,650.619,3427.02,3424.55,0.843322,0.0388848
1956.0,0.833426,651.278,3442.58,3440.11,0.835528,0.0310898
1968.0,0.838628,651.938,3458.11,3455.63,0.833955,0.0295158
1980.0,0.842878,652.597,3473.6,3471.12,0.84248,0.0380398
1992.0,0.868543,653.257,3489.07,3486.58,0.870635,0.0661938
2004.0,0.859378,653.916,3504.51,3502.01,0.859378,0.0549359
2016.0,0.831888,654.575,3519.91,3517.4,0.831888,0.0274449
2028.0,0.822583,655.235,3535.28,3532.77,0.822583,0.0181389
2040.0,0.820788,655.894,3550.63,3548.1,0.819369,0.014924
2047.0,0.81958,656.279,3559.56,3557.04,0.818558,0.0141128