File: data/processed/processed_data/2024-10-11/2024-10-11_methylcellulosepowder_n_n_n_solid_10000_0_5.csv
Pixels #,Intensity (a.u.),Wavelength (nm),Raman shift (cm-1),Raman shift (cm-1) adjusted,Filtered Intensity (a.u.),Baselined Filtered Intensity (a.u.)
0.0,0.819129,543.803,407.968,406.929,0.818456,-0.0371213
12.0,0.824034,544.462,430.238,429.188,0.818235,-0.037345
24.0,0.816973,545.121,452.454,451.393,0.818012,-0.0375754
36.0,0.820644,545.781,474.616,473.545,0.821749,-0.0338508
48.0,0.873287,546.44,496.725,495.643,0.873287,0.0176709
60.0,1.02662,547.099,518.78,517.688,1.02662,0.170992
72.0,1.08963,547.759,540.782,539.68,1.0911,0.235472
84.0,1.10651,548.418,562.732,561.619,1.10651,0.250882
96.0,1.11907,549.078,584.628,583.506,1.11907,0.263442
108.0,1.12551,549.737,606.472,605.339,1.12551,0.269882
120.0,1.11822,550.396,628.264,627.121,1.1207,0.265072
132.0,1.12221,551.056,650.004,648.85,1.11905,0.263422
144.0,1.13284,551.715,671.691,670.528,1.13054,0.274912
156.0,1.15671,552.374,693.327,692.153,1.15755,0.301922
168.0,1.1926,553.034,714.912,713.727,1.1926,0.336972
180.0,1.2472,553.693,736.444,735.25,1.2472,0.391572
192.0,1.32466,554.352,757.926,756.722,1.32466,0.469032
204.0,1.43116,555.012,779.357,778.142,1.43116,0.575532
216.0,1.58824,555.671,800.737,799.512,1.58824,0.732612
228.0,1.78291,556.33,822.066,820.831,1.78291,0.927282
240.0,1.9908,556.99,843.344,842.1,1.9908,1.13517
252.0,2.16586,557.649,864.572,863.318,2.16586,1.31023
264.0,2.28096,558.309,885.751,884.486,2.28096,1.42533
276.0,2.33477,558.968,906.879,905.604,2.33477,1.47914
288.0,2.36126,559.627,927.957,926.673,2.35944,1.50381
300.0,2.36707,560.287,948.986,947.691,2.37213,1.5165
312.0,2.37222,560.946,969.965,968.661,2.37222,1.51659
324.0,2.3906,561.605,990.895,989.581,2.39306,1.53743
336.0,2.41859,562.265,1011.78,1010.45,2.42158,1.56595
348.0,2.45251,562.924,1032.61,1031.27,2.45236,1.59673
360.0,2.47838,563.583,1053.39,1052.05,2.47838,1.62275
372.0,2.49495,564.243,1074.13,1072.77,2.49875,1.64312
384.0,2.50934,564.902,1094.81,1093.45,2.51071,1.65508
396.0,2.52171,565.562,1115.45,1114.08,2.52097,1.66534
408.0,2.53556,566.221,1136.04,1134.66,2.53093,1.6753
420.0,2.54807,566.88,1156.58,1155.19,2.54807,1.69244
432.0,2.56244,567.54,1177.08,1175.68,2.56526,1.70963
444.0,2.58367,568.199,1197.52,1196.11,2.58099,1.72536
456.0,2.60098,568.858,1217.92,1216.5,2.60098,1.74535
468.0,2.6127,569.518,1238.28,1236.85,2.61313,1.7575
480.0,2.62771,570.177,1258.58,1257.14,2.62771,1.77208
492.0,2.63859,570.836,1278.84,1277.39,2.64179,1.78616
504.0,2.6513,571.496,1299.05,1297.59,2.65695,1.80132
516.0,2.66777,572.155,1319.22,1317.75,2.6728,1.81717
528.0,2.68949,572.815,1339.33,1337.86,2.6933,1.83767
540.0,2.71403,573.474,1359.41,1357.92,2.71403,1.8584
552.0,2.72596,574.133,1379.43,1377.94,2.72633,1.8707
564.0,2.73798,574.793,1399.41,1397.91,2.73628,1.88065
576.0,2.74616,575.452,1419.35,1417.83,2.74645,1.89082
588.0,2.76327,576.111,1439.24,1437.71,2.76327,1.90764
600.0,2.78395,576.771,1459.08,1457.54,2.7771,1.92147
612.0,2.79001,577.43,1478.88,1477.33,2.79001,1.93438
624.0,2.80253,578.089,1498.63,1497.08,2.79981,1.94418
636.0,2.80878,578.749,1518.34,1516.77,2.80878,1.95315
648.0,2.82591,579.408,1538,1536.43,2.82057,1.96494
660.0,2.82905,580.067,1557.62,1556.04,2.82905,1.97342
672.0,2.90725,580.727,1577.19,1575.6,2.83377,1.97814
684.0,2.83823,581.386,1596.72,1595.12,2.83859,1.98296
696.0,2.84695,582.046,1616.21,1614.6,2.8452,1.98957
708.0,2.85229,582.705,1635.65,1634.03,2.84748,1.99185
720.0,2.85573,583.364,1655.04,1653.42,2.85402,1.99839
732.0,2.8616,584.024,1674.4,1672.76,2.85995,2.00432
744.0,2.86521,584.683,1693.71,1692.06,2.86979,2.01416
756.0,2.87917,585.342,1712.97,1711.32,2.8772,2.02157
768.0,2.88408,586.002,1732.2,1730.53,2.88408,2.02845
780.0,2.88634,586.661,1751.38,1749.7,2.8886,2.03297
792.0,2.89428,587.32,1770.51,1768.83,2.89428,2.03865
804.0,2.89632,587.98,1789.61,1787.91,2.89632,2.04069
816.0,2.89763,588.639,1808.66,1806.96,2.89738,2.04175
828.0,2.90986,589.299,1827.66,1825.96,2.90488,2.04925
840.0,2.91011,589.958,1846.63,1844.91,2.91096,2.05533
852.0,2.92195,590.617,1865.55,1863.83,2.92015,2.06452
864.0,2.92199,591.277,1884.43,1882.7,2.92788,2.07225
876.0,2.92348,591.936,1903.27,1901.53,2.92132,2.06569
888.0,2.92082,592.595,1922.07,1920.32,2.92577,2.07014
900.0,2.92266,593.255,1940.83,1939.06,2.92154,2.06591
912.0,2.92212,593.914,1959.54,1957.77,2.92025,2.06462
924.0,2.91406,594.573,1978.21,1976.43,2.91406,2.05843
936.0,2.90958,595.233,1996.84,1995.05,2.91278,2.05715
948.0,2.90272,595.892,2015.43,2013.63,2.90368,2.04805
960.0,2.89444,596.551,2033.98,2032.17,2.89603,2.0404
972.0,2.89285,597.211,2052.49,2050.67,2.89285,2.03722
984.0,2.87948,597.87,2070.95,2069.13,2.88357,2.02794
996.0,2.87837,598.53,2089.38,2087.55,2.87041,2.01478
1008.0,2.8708,599.189,2107.77,2105.93,2.86256,2.00693
1020.0,2.85693,599.848,2126.11,2124.26,2.8569,2.00127
1032.0,2.84895,600.508,2144.42,2142.56,2.84895,1.99332
1044.0,2.85155,601.167,2162.68,2160.81,2.8399,1.98427
1056.0,2.8315,601.826,2180.9,2179.03,2.8315,1.97587
1068.0,2.82596,602.486,2199.09,2197.21,2.82558,1.96995
1080.0,2.81698,603.145,2217.23,2215.34,2.81742,1.96179
1092.0,2.81946,603.804,2235.34,2233.44,2.81901,1.96338
1104.0,2.81444,604.464,2253.41,2251.5,2.81504,1.95941
1116.0,2.8035,605.123,2271.43,2269.51,2.80704,1.95141
1128.0,2.80168,605.783,2289.42,2287.49,2.79782,1.94219
1140.0,2.79096,606.442,2307.37,2305.43,2.79397,1.93834
1152.0,2.78551,607.101,2325.28,2323.33,2.78501,1.92938
1164.0,2.7787,607.761,2343.15,2341.19,2.7787,1.92307
1176.0,2.77422,608.42,2360.98,2359.02,2.77422,1.91859
1188.0,2.76735,609.079,2378.77,2376.8,2.76735,1.91172
1200.0,2.76322,609.739,2396.52,2394.55,2.76153,1.9059
1212.0,2.7522,610.398,2414.24,2412.26,2.75051,1.89488
1224.0,2.73865,611.057,2431.92,2429.93,2.73747,1.88184
1236.0,2.72306,611.717,2449.56,2447.56,2.72979,1.87416
1248.0,2.72215,612.376,2467.16,2465.15,2.72317,1.86754
1260.0,2.71382,613.036,2484.72,2482.71,2.71253,1.8569
1272.0,2.69766,613.695,2502.25,2500.22,2.69766,1.84203
1284.0,2.69163,614.354,2519.74,2517.7,2.68206,1.82643
1296.0,2.6714,615.014,2537.19,2535.15,2.66956,1.81393
1308.0,2.65402,615.673,2554.6,2552.55,2.65402,1.79839
1320.0,2.64321,616.332,2571.98,2569.92,2.64154,1.78591
1332.0,2.62334,616.992,2589.32,2587.25,2.62334,1.76771
1344.0,2.61366,617.651,2606.62,2604.54,2.6116,1.75597
1356.0,2.59791,618.31,2623.89,2621.8,2.59525,1.73962
1368.0,2.58157,618.97,2641.11,2639.02,2.58504,1.72941
1380.0,2.5727,619.629,2658.31,2656.21,2.5727,1.71707
1392.0,2.57212,620.288,2675.46,2673.35,2.56042,1.70479
1404.0,2.54969,620.948,2692.58,2690.46,2.55102,1.69539
1416.0,2.54562,621.607,2709.66,2707.54,2.54492,1.68929
1428.0,2.53695,622.267,2726.71,2724.58,2.53409,1.67846
1440.0,2.52452,622.926,2743.72,2741.58,2.5242,1.66857
1452.0,2.51351,623.585,2760.69,2758.55,2.51054,1.65491
1464.0,2.50138,624.245,2777.63,2775.48,2.50286,1.64723
1476.0,2.49555,624.904,2794.53,2792.37,2.49555,1.63992
1488.0,2.48686,625.563,2811.4,2809.23,2.48991,1.63428
1500.0,2.48767,626.223,2828.23,2826.05,2.49022,1.63459
1512.0,2.48478,626.882,2845.03,2842.84,2.48382,1.62819
1524.0,2.47649,627.541,2861.79,2859.59,2.47149,1.61586
1536.0,2.46652,628.201,2878.52,2876.31,2.46892,1.61329
1548.0,2.46709,628.86,2895.21,2892.99,2.46709,1.61146
1560.0,2.44723,629.52,2911.86,2909.64,2.44953,1.5939
1572.0,2.43184,630.179,2928.48,2926.25,2.43339,1.57776
1584.0,2.41549,630.838,2945.07,2942.83,2.4154,1.55977
1596.0,2.39963,631.498,2961.62,2959.38,2.39249,1.53686
1608.0,2.36478,632.157,2978.14,2975.89,2.36478,1.50915
1620.0,2.34341,632.816,2994.62,2992.36,2.34751,1.49188
1632.0,2.32315,633.476,3011.07,3008.8,2.32315,1.46752
1644.0,2.29988,634.135,3027.48,3025.21,2.29988,1.44425
1656.0,2.27918,634.794,3043.86,3041.58,2.27918,1.42355
1668.0,2.26094,635.454,3060.21,3057.92,2.26094,1.40531
1680.0,2.24187,636.113,3076.52,3074.22,2.24079,1.38516
1692.0,2.22186,636.772,3092.8,3090.49,2.22186,1.36623
1704.0,2.20193,637.432,3109.04,3106.73,2.20356,1.34793
1716.0,2.19042,638.091,3125.25,3122.93,2.18966,1.33403
1728.0,2.17798,638.751,3141.43,3139.1,2.17325,1.31762
1740.0,2.16145,639.41,3157.57,3155.24,2.16145,1.30582
1752.0,2.14146,640.069,3173.68,3171.34,2.14146,1.28583
1764.0,2.12444,640.729,3189.76,3187.41,2.12518,1.26955
1776.0,2.10865,641.388,3205.81,3203.45,2.10865,1.25302
1788.0,2.09565,642.047,3221.82,3219.45,2.09356,1.23793
1800.0,2.07773,642.707,3237.8,3235.42,2.07779,1.22216
1812.0,2.05989,643.366,3253.74,3251.36,2.06235,1.20672
1824.0,2.04331,644.025,3269.66,3267.27,2.04579,1.19016
1836.0,2.03224,644.685,3285.54,3283.14,2.03203,1.1764
1848.0,2.01849,645.344,3301.39,3298.98,2.01849,1.16286
1860.0,2.00207,646.004,3317.2,3314.79,2.00181,1.14618
1872.0,1.98797,646.663,3332.98,3330.57,1.98797,1.13234
1884.0,1.96466,647.322,3348.74,3346.31,1.97085,1.11522
1896.0,1.96067,647.982,3364.46,3362.02,1.95624,1.10061
1908.0,1.93778,648.641,3380.14,3377.7,1.93778,1.08215
1920.0,1.92379,649.3,3395.8,3393.35,1.92427,1.06864
1932.0,1.90997,649.96,3411.42,3408.97,1.90399,1.04836
1944.0,1.88943,650.619,3427.02,3424.55,1.88823,1.0326
1956.0,1.86889,651.278,3442.58,3440.11,1.86889,1.01326
1968.0,1.85661,651.938,3458.11,3455.63,1.85235,0.996722
1980.0,1.83831,652.597,3473.6,3471.12,1.83491,0.979282
1992.0,1.81671,653.257,3489.07,3486.58,1.82091,0.965282
2004.0,1.79912,653.916,3504.51,3502.01,1.80005,0.944422
2016.0,1.78374,654.575,3519.91,3517.4,1.78319,0.927562
2028.0,1.76652,655.235,3535.28,3532.77,1.76596,0.910332
2040.0,1.7532,655.894,3550.63,3548.1,1.75127,0.895642
2047.0,1.74474,656.279,3559.56,3557.04,1.74331,0.887682