File: data/processed/processed_data/2024-10-11/2024-10-11_potassiumphosphatemonobasicpowder_n_n_n_solid_10000_0_5.csv
Pixels #,Intensity (a.u.),Wavelength (nm),Raman shift (cm-1),Raman shift (cm-1) adjusted,Filtered Intensity (a.u.),Baselined Filtered Intensity (a.u.)
0.0,0.817151,543.803,407.968,406.929,0.817,0.010495
13.0,0.817018,544.517,432.091,431.041,0.819706,0.013201
26.0,0.816399,545.231,456.151,455.089,0.816918,0.010413
39.0,0.848266,545.946,480.148,479.075,0.818813,0.012308
52.0,0.820342,546.66,504.082,502.998,0.819464,0.012959
65.0,0.819549,547.374,527.954,526.858,0.819549,0.013044
78.0,0.819695,548.088,551.763,550.656,0.818455,0.01195
91.0,0.825964,548.803,575.511,574.393,0.819881,0.013376
104.0,0.816274,549.517,599.197,598.067,0.819681,0.013176
117.0,0.815113,550.231,622.821,621.68,0.816392,0.00988696
130.0,0.818047,550.946,646.384,645.232,0.818047,0.011542
143.0,0.817045,551.66,669.886,668.723,0.816867,0.010362
156.0,0.816442,552.374,693.327,692.153,0.81562,0.00911511
169.0,0.817049,553.089,716.708,715.523,0.815969,0.00946419
182.0,0.817004,553.803,740.028,738.832,0.817004,0.0104993
195.0,0.816452,554.517,763.289,762.082,0.816452,0.00994746
208.0,0.814728,555.232,786.489,785.271,0.814728,0.00822368
221.0,0.817727,555.946,809.63,808.401,0.817355,0.0108509
234.0,0.821005,556.66,832.711,831.472,0.820529,0.0140252
247.0,0.824676,557.374,855.733,854.483,0.823092,0.0165884
260.0,0.826313,558.089,878.697,877.435,0.824123,0.0176196
273.0,0.859946,558.803,901.601,900.329,0.856239,0.0497359
286.0,0.851465,559.517,924.448,923.165,0.851465,0.0449621
299.0,0.834743,560.232,947.235,945.942,0.828611,0.0221084
312.0,0.821877,560.946,969.965,968.661,0.821877,0.0153746
325.0,0.821739,561.66,992.637,991.322,0.820623,0.0141209
338.0,0.821339,562.375,1015.25,1013.93,0.82069,0.0141881
351.0,0.819651,563.089,1037.81,1036.47,0.818759,0.0122573
364.0,0.816033,563.803,1060.31,1058.96,0.819027,0.0125256
377.0,0.816785,564.518,1082.75,1081.39,0.815163,0.00866182
390.0,0.815364,565.232,1105.14,1103.77,0.815364,0.00886307
403.0,0.813124,565.946,1127.47,1126.09,0.813441,0.00694047
416.0,0.810024,566.66,1149.74,1148.35,0.812013,0.005513
429.0,0.810492,567.375,1171.96,1170.56,0.811398,0.00489886
442.0,0.810257,568.089,1194.12,1192.71,0.810981,0.00448309
455.0,0.81,568.803,1216.23,1214.81,0.810701,0.0042048
468.0,0.808452,569.518,1238.28,1236.85,0.808452,0.00195794
481.0,0.810067,570.232,1260.27,1258.83,0.809579,0.0030875
494.0,0.825836,570.946,1282.21,1280.76,0.81047,0.0039815
507.0,0.80686,571.661,1304.1,1302.63,0.807258,0.000772892
520.0,0.808869,572.375,1325.93,1324.45,0.808869,0.00238748
533.0,0.80697,573.089,1347.7,1346.22,0.807495,0.00101736
546.0,0.806871,573.804,1369.43,1367.93,0.806871,0.0003974
559.0,0.806291,574.518,1391.09,1389.59,0.807413,0.000943521
572.0,0.80437,575.232,1412.71,1411.19,0.80437,-0.00209538
585.0,0.822358,575.946,1434.27,1432.74,0.806365,-9.64079e-05
598.0,0.805979,576.661,1455.78,1454.24,0.805979,-0.000478458
611.0,0.808302,577.375,1477.23,1475.69,0.805773,-0.000680618
624.0,0.807423,578.089,1498.63,1497.08,0.807001,0.000551105
637.0,0.804378,578.804,1519.98,1518.41,0.80429,-0.00215631
650.0,0.804353,579.518,1541.27,1539.7,0.80425,-0.00219306
663.0,0.805492,580.232,1562.52,1560.93,0.804952,-0.00148813
676.0,0.803581,580.947,1583.71,1582.11,0.803726,-0.00271145
689.0,0.803715,581.661,1604.85,1603.24,0.803715,-0.00272015
702.0,0.80961,582.375,1625.93,1624.32,0.803221,-0.00321227
715.0,0.804692,583.09,1646.97,1645.34,0.804692,-0.00173968
728.0,0.803135,583.804,1667.95,1666.32,0.804857,-0.00157337
741.0,0.804536,584.518,1688.88,1687.24,0.804598,-0.00183136
754.0,0.806195,585.232,1709.77,1708.11,0.805802,-0.000626573
767.0,0.80474,585.947,1730.6,1728.93,0.80474,-0.00168808
780.0,0.802989,586.661,1751.38,1749.7,0.803134,-0.00329385
793.0,0.802911,587.375,1772.1,1770.42,0.805107,-0.00132087
806.0,0.803441,588.09,1792.78,1791.09,0.803936,-0.00249218
819.0,0.80371,588.804,1813.41,1811.71,0.80371,-0.0027189
832.0,0.803182,589.518,1833.99,1832.28,0.803406,-0.00302397
845.0,0.810179,590.233,1854.52,1852.8,0.808178,0.00174665
858.0,0.804456,590.947,1875,1873.27,0.803993,-0.00243991
871.0,0.803926,591.661,1895.43,1893.69,0.806045,-0.000389631
884.0,0.80533,592.376,1915.81,1914.06,0.804532,-0.0019045
897.0,0.80604,593.09,1936.14,1934.38,0.805092,-0.0013466
910.0,0.805713,593.804,1956.42,1954.65,0.805361,-0.00107996
923.0,0.804957,594.518,1976.66,1974.88,0.805085,-0.00135854
936.0,0.801734,595.233,1996.84,1995.05,0.805768,-0.000678334
949.0,0.81203,595.947,2016.98,2015.18,0.806363,-8.63062e-05
962.0,0.807208,596.661,2037.07,2035.26,0.804956,-0.00149643
975.0,0.810755,597.376,2057.11,2055.29,0.806763,0.000307302
988.0,0.805374,598.09,2077.1,2075.27,0.805793,-0.000666002
1001.0,0.806697,598.804,2097.05,2095.21,0.806403,-5.93834e-05
1014.0,0.804764,599.519,2116.94,2115.1,0.804764,-0.00170184
1027.0,0.807504,600.233,2136.79,2134.94,0.806742,0.000272633
1040.0,0.812279,600.947,2156.6,2154.73,0.80716,0.000687136
1053.0,0.805963,601.662,2176.35,2174.48,0.806087,-0.000389349
1066.0,0.806642,602.376,2196.06,2194.18,0.807172,0.000692222
1079.0,0.809449,603.09,2215.72,2213.83,0.807105,0.00062196
1092.0,0.808609,603.804,2235.34,2233.44,0.808116,0.00162988
1105.0,0.811962,604.519,2254.91,2253,0.808946,0.00245693
1118.0,0.812052,605.233,2274.43,2272.51,0.812052,0.00556023
1131.0,0.80992,605.947,2293.91,2291.98,0.808676,0.00218168
1144.0,0.812129,606.662,2313.34,2311.4,0.81038,0.00388336
1157.0,0.809954,607.376,2332.73,2330.78,0.812303,0.00580433
1170.0,0.808961,608.09,2352.07,2350.11,0.809512,0.0030116
1183.0,0.813479,608.805,2371.36,2369.4,0.809266,0.0027641
1196.0,0.811649,609.519,2390.61,2388.64,0.812684,0.00618082
1209.0,0.811298,610.233,2409.82,2407.83,0.810909,0.00440462
1222.0,0.851899,610.948,2428.97,2426.98,0.811405,0.00489957
1235.0,0.810453,611.662,2448.09,2446.09,0.8113,0.00479369
1248.0,0.811395,612.376,2467.16,2465.15,0.813104,0.00659699
1261.0,0.814094,613.09,2486.19,2484.17,0.809323,0.00281539
1274.0,0.810507,613.805,2505.17,2503.14,0.810813,0.00430492
1287.0,0.826807,614.519,2524.1,2522.07,0.811139,0.00463065
1300.0,0.811143,615.233,2543,2540.95,0.811143,0.00463463
1313.0,0.811698,615.948,2561.85,2559.79,0.811698,0.00518979
1326.0,0.813476,616.662,2580.65,2578.59,0.810983,0.0044751
1339.0,0.813176,617.376,2599.42,2597.34,0.813176,0.00666851
1352.0,0.812562,618.091,2618.13,2616.05,0.812979,0.00647198
1365.0,0.811274,618.805,2636.81,2634.72,0.811776,0.00526944
1378.0,0.815491,619.519,2655.44,2653.34,0.814571,0.0080649
1391.0,0.812028,620.234,2674.03,2671.93,0.81494,0.00843439
1404.0,0.809776,620.948,2692.58,2690.46,0.812566,0.0060609
1417.0,0.8158,621.662,2711.08,2708.96,0.81496,0.00845548
1430.0,0.814214,622.376,2729.55,2727.41,0.814214,0.0077101
1443.0,0.814785,623.091,2747.97,2745.82,0.814672,0.00816875
1456.0,0.812571,623.805,2766.34,2764.19,0.812571,0.0060684
1469.0,0.811942,624.519,2784.68,2782.52,0.810561,0.00405916
1482.0,0.810083,625.234,2802.97,2800.8,0.811483,0.00498208
1495.0,0.811521,625.948,2821.22,2819.05,0.810564,0.00406414
1508.0,0.814068,626.662,2839.43,2837.25,0.81164,0.00514135
1521.0,0.810921,627.377,2857.6,2855.41,0.810973,0.00447566
1534.0,0.808698,628.091,2875.73,2873.53,0.81097,0.00447407
1547.0,0.809221,628.805,2893.82,2891.61,0.811164,0.00466963
1560.0,0.810106,629.52,2911.86,2909.64,0.810335,0.00384239
1573.0,0.819103,630.234,2929.87,2927.64,0.813305,0.00681442
1586.0,0.814077,630.948,2947.83,2945.59,0.81161,0.00512167
1599.0,0.808786,631.662,2965.75,2963.51,0.810489,0.00400307
1612.0,0.80751,632.377,2983.63,2981.38,0.80786,0.00137668
1625.0,0.809681,633.091,3001.48,2999.21,0.810337,0.00385654
1638.0,0.808536,633.805,3019.28,3017.01,0.807725,0.00124761
1651.0,0.809035,634.52,3037.04,3034.76,0.809035,0.00256096
1664.0,0.805807,635.234,3054.76,3052.47,0.808915,0.00244461
1677.0,0.805437,635.948,3072.44,3070.15,0.807233,0.000766548
1690.0,0.81069,636.663,3090.09,3087.78,0.808029,0.00156662
1703.0,0.807823,637.377,3107.69,3105.38,0.807823,0.00136477
1716.0,0.806745,638.091,3125.25,3122.93,0.806745,0.000291033
1729.0,0.808307,638.806,3142.78,3140.45,0.807788,0.00133844
1742.0,0.804191,639.52,3160.26,3157.92,0.806283,-0.000162033
1755.0,0.804662,640.234,3177.71,3175.36,0.80675,0.000309575
1768.0,0.806848,640.948,3195.11,3192.76,0.806848,0.00041226
1781.0,0.806584,641.663,3212.48,3210.12,0.806606,0.000174953
1794.0,0.805958,642.377,3229.81,3227.44,0.805459,-0.000967379
1807.0,0.807249,643.091,3247.1,3244.72,0.807249,0.000827191
1820.0,0.806309,643.806,3264.36,3261.97,0.806309,-0.000108235
1833.0,0.805491,644.52,3281.57,3279.18,0.804761,-0.00165173
1846.0,0.819565,645.234,3298.75,3296.34,0.8069,0.000491594
1859.0,0.804536,645.949,3315.88,3313.47,0.805853,-0.000551213
1872.0,0.805842,646.663,3332.98,3330.57,0.805732,-0.000668192
1885.0,0.80493,647.377,3350.05,3347.62,0.805038,-0.00135837
1898.0,0.807566,648.092,3367.07,3364.64,0.805167,-0.00122573
1911.0,0.804381,648.806,3384.06,3381.62,0.804623,-0.0017663
1924.0,0.80407,649.52,3401.01,3398.56,0.802681,-0.0037052
1937.0,0.803048,650.234,3417.92,3415.47,0.803346,-0.00303741
1950.0,0.80376,650.949,3434.8,3432.33,0.804999,-0.00138191
1963.0,0.802058,651.663,3451.64,3449.16,0.802564,-0.0038147
1976.0,0.803197,652.377,3468.44,3465.96,0.803973,-0.00240387
1989.0,0.804645,653.092,3485.21,3482.72,0.805092,-0.00128343
2002.0,0.803524,653.806,3501.93,3499.44,0.803992,-0.00238221
2015.0,0.805468,654.52,3518.63,3516.12,0.803763,-0.00261021
2028.0,0.803261,655.235,3535.28,3532.77,0.804279,-0.00209352
2041.0,0.806391,655.949,3551.9,3549.38,0.805011,-0.00136123
2047.0,0.805824,656.279,3559.56,3557.04,0.804403,-0.0019692