File: data/processed/processed_data/2024-10-11/2024-10-11_l-methioninepowder_n_n_n_solid_10000_0_5.csv
Pixels #,Intensity (a.u.),Wavelength (nm),Raman shift (cm-1),Raman shift (cm-1) adjusted,Filtered Intensity (a.u.),Baselined Filtered Intensity (a.u.)
0.0,0.797082,543.803,407.968,406.929,0.796648,-0.00691771
12.0,0.802337,544.462,430.238,429.188,0.796566,-0.00700019
24.0,0.795244,545.121,452.454,451.393,0.795723,-0.0078445
36.0,0.796294,545.781,474.616,473.545,0.797443,-0.00612678
48.0,0.800799,546.44,496.725,495.643,0.79956,-0.00401285
60.0,0.801615,547.099,518.78,517.688,0.799345,-0.00423154
72.0,0.803572,547.759,540.782,539.68,0.803572,-8.59118e-06
84.0,0.801094,548.418,562.732,561.619,0.801094,-0.00249067
96.0,0.800104,549.078,584.628,583.506,0.800778,-0.00281094
108.0,0.801034,549.737,606.472,605.339,0.800631,-0.00296253
120.0,0.800123,550.396,628.264,627.121,0.801015,-0.00258345
132.0,0.807576,551.056,650.004,648.85,0.805259,0.00165541
144.0,0.80464,551.715,671.691,670.528,0.804523,0.000914315
156.0,0.803858,552.374,693.327,692.153,0.803249,-0.000364699
168.0,0.813164,553.034,714.912,713.727,0.813164,0.00954543
180.0,0.805608,553.693,736.444,735.25,0.80465,0.00102671
192.0,0.810681,554.352,757.926,756.722,0.807431,0.00380326
204.0,0.806969,555.012,779.357,778.142,0.807367,0.00373539
216.0,0.813097,555.671,800.737,799.512,0.813097,0.00946204
228.0,0.810258,556.33,822.066,820.831,0.812524,0.00888603
240.0,0.813486,556.99,843.344,842.1,0.81488,0.0112392
252.0,0.824974,557.649,864.572,863.318,0.825146,0.0215024
264.0,0.827432,558.309,885.751,884.486,0.827432,0.0237857
276.0,0.820559,558.968,906.879,905.604,0.819258,0.0156089
288.0,0.818466,559.627,927.957,926.673,0.819578,0.0159262
300.0,0.8273,560.287,948.986,947.691,0.828009,0.0243544
312.0,0.821448,560.946,969.965,968.661,0.822395,0.0187376
324.0,0.823074,561.605,990.895,989.581,0.823663,0.0200029
336.0,0.820411,562.265,1011.78,1010.45,0.820411,0.0167481
348.0,0.819319,562.924,1032.61,1031.27,0.820954,0.0172884
360.0,0.820003,563.583,1053.39,1052.05,0.820003,0.0163346
372.0,0.8263,564.243,1074.13,1072.77,0.8263,0.0226288
384.0,0.820039,564.902,1094.81,1093.45,0.82127,0.0175961
396.0,0.821389,565.562,1115.45,1114.08,0.820435,0.0167583
408.0,0.82247,566.221,1136.04,1134.66,0.820363,0.0166836
420.0,0.822419,566.88,1156.58,1155.19,0.823109,0.0194268
432.0,0.827118,567.54,1177.08,1175.68,0.827118,0.023433
444.0,0.820284,568.199,1197.52,1196.11,0.818933,0.0152453
456.0,0.819322,568.858,1217.92,1216.5,0.819322,0.0156315
468.0,0.821921,569.518,1238.28,1236.85,0.821921,0.0182278
480.0,0.820801,570.177,1258.58,1257.14,0.822529,0.018833
492.0,0.820116,570.836,1278.84,1277.39,0.821639,0.0179402
504.0,0.819569,571.496,1299.05,1297.59,0.820258,0.0165565
516.0,0.834979,572.155,1319.22,1317.75,0.834979,0.0312747
528.0,0.834222,572.815,1339.33,1337.86,0.834222,0.030515
540.0,0.839754,573.474,1359.41,1357.92,0.839754,0.0360442
552.0,0.827562,574.133,1379.43,1377.94,0.822606,0.0188934
564.0,0.827349,574.793,1399.41,1397.91,0.827349,0.0236337
576.0,0.848226,575.452,1419.35,1417.83,0.844937,0.0412189
588.0,0.850441,576.111,1439.24,1437.71,0.847356,0.0436352
600.0,0.836494,576.771,1459.08,1457.54,0.831802,0.0280784
612.0,0.82189,577.43,1478.88,1477.33,0.821902,0.0181756
624.0,0.824511,578.089,1498.63,1497.08,0.823543,0.0198139
636.0,0.82434,578.749,1518.34,1516.77,0.82434,0.0206081
648.0,0.819619,579.408,1538,1536.43,0.819619,0.0158844
660.0,0.820679,580.067,1557.62,1556.04,0.821053,0.0173156
672.0,0.89608,580.727,1577.19,1575.6,0.82059,0.0168498
684.0,0.821057,581.386,1596.72,1595.12,0.821899,0.0181561
696.0,0.822688,582.046,1616.21,1614.6,0.823444,0.0196983
708.0,0.825212,582.705,1635.65,1634.03,0.822997,0.0192485
720.0,0.821051,583.364,1655.04,1653.42,0.820503,0.0167518
732.0,0.817986,584.024,1674.4,1672.76,0.817301,0.013547
744.0,0.816857,584.683,1693.71,1692.06,0.816963,0.0132063
756.0,0.817508,585.342,1712.97,1711.32,0.817508,0.0137485
768.0,0.817018,586.002,1732.2,1730.53,0.817018,0.0132557
780.0,0.815517,586.661,1751.38,1749.7,0.815574,0.011809
792.0,0.817584,587.32,1770.51,1768.83,0.817426,0.0136582
804.0,0.816005,587.98,1789.61,1787.91,0.81565,0.0118795
816.0,0.816882,588.639,1808.66,1806.96,0.816809,0.0130358
828.0,0.818982,589.299,1827.66,1825.96,0.816583,0.0128071
840.0,0.815834,589.958,1846.63,1844.91,0.815834,0.0120555
852.0,0.815069,590.617,1865.55,1863.83,0.81729,0.0135088
864.0,0.815584,591.277,1884.43,1882.7,0.818729,0.0149452
876.0,0.81759,591.936,1903.27,1901.53,0.815825,0.0120385
888.0,0.819167,592.595,1922.07,1920.32,0.817894,0.0141049
900.0,0.817733,593.255,1940.83,1939.06,0.816266,0.0124742
912.0,0.81734,593.914,1959.54,1957.77,0.81734,0.0135455
924.0,0.816027,594.573,1978.21,1976.43,0.817107,0.0133099
936.0,0.813969,595.233,1996.84,1995.05,0.816675,0.0128752
948.0,0.816777,595.892,2015.43,2013.63,0.816777,0.0129746
960.0,0.815851,596.551,2033.98,2032.17,0.815851,0.0120459
972.0,0.818523,597.211,2052.49,2050.67,0.818523,0.0147153
984.0,0.817891,597.87,2070.95,2069.13,0.817891,0.0140806
996.0,0.822592,598.53,2089.38,2087.55,0.817117,0.013304
1008.0,0.821754,599.189,2107.77,2105.93,0.817231,0.0134153
1020.0,0.817895,599.848,2126.11,2124.26,0.818932,0.0151137
1032.0,0.817709,600.508,2144.42,2142.56,0.817549,0.013728
1044.0,0.826509,601.167,2162.68,2160.81,0.817858,0.0140343
1056.0,0.815981,601.826,2180.9,2179.03,0.815981,0.0121547
1068.0,0.817278,602.486,2199.09,2197.21,0.816772,0.012943
1080.0,0.816373,603.145,2217.23,2215.34,0.816373,0.0125414
1092.0,0.816591,603.804,2235.34,2233.44,0.816189,0.0123547
1104.0,0.81548,604.464,2253.41,2251.5,0.816871,0.0130341
1116.0,0.815351,605.123,2271.43,2269.51,0.816562,0.0127224
1128.0,0.817779,605.783,2289.42,2287.49,0.816951,0.0131088
1140.0,0.816444,606.442,2307.37,2305.43,0.817855,0.0140101
1152.0,0.816479,607.101,2325.28,2323.33,0.815212,0.0113645
1164.0,0.817053,607.761,2343.15,2341.19,0.815936,0.0120858
1176.0,0.816345,608.42,2360.98,2359.02,0.817489,0.0136361
1188.0,0.817579,609.079,2378.77,2376.8,0.817581,0.0137255
1200.0,0.819595,609.739,2396.52,2394.55,0.819595,0.0157368
1212.0,0.817454,610.398,2414.24,2412.26,0.817445,0.0135842
1224.0,0.816963,611.057,2431.92,2429.93,0.816567,0.0127035
1236.0,0.815507,611.717,2449.56,2447.56,0.817426,0.0135599
1248.0,0.81724,612.376,2467.16,2465.15,0.818905,0.0150362
1260.0,0.81852,613.036,2484.72,2482.71,0.81852,0.0146486
1272.0,0.817363,613.695,2502.25,2500.22,0.817363,0.0134889
1284.0,0.816854,614.354,2519.74,2517.7,0.816291,0.0124143
1296.0,0.819958,615.014,2537.19,2535.15,0.819122,0.0152426
1308.0,0.816237,615.673,2554.6,2552.55,0.817506,0.013624
1320.0,0.823978,616.332,2571.98,2569.92,0.818909,0.0150243
1332.0,0.81806,616.992,2589.32,2587.25,0.818059,0.0141716
1344.0,0.818897,617.651,2606.62,2604.54,0.819239,0.015349
1356.0,0.819086,618.31,2623.89,2621.8,0.819106,0.0152133
1368.0,0.818784,618.97,2641.11,2639.02,0.818784,0.0148887
1380.0,0.822179,619.629,2658.31,2656.21,0.820991,0.017093
1392.0,0.829835,620.288,2675.46,2673.35,0.818271,0.0143704
1404.0,0.816004,620.948,2692.58,2690.46,0.818228,0.0143247
1416.0,0.820201,621.607,2709.66,2707.54,0.820201,0.0162951
1428.0,0.826976,622.267,2726.71,2724.58,0.820643,0.0167344
1440.0,0.819101,622.926,2743.72,2741.58,0.820356,0.0164448
1452.0,0.818625,623.585,2760.69,2758.55,0.818625,0.0147111
1464.0,0.818099,624.245,2777.63,2775.48,0.818845,0.0149284
1476.0,0.819868,624.904,2794.53,2792.37,0.819861,0.0159418
1488.0,0.820024,625.563,2811.4,2809.23,0.822529,0.0186071
1500.0,0.82788,626.223,2828.23,2826.05,0.829206,0.0252815
1512.0,0.841961,626.882,2845.03,2842.84,0.841961,0.0380338
1524.0,0.849665,627.541,2861.79,2859.59,0.848774,0.0448442
1536.0,0.845841,628.201,2878.52,2876.31,0.845841,0.0419085
1548.0,0.858515,628.86,2895.21,2892.99,0.858515,0.0545799
1560.0,0.9717,629.52,2911.86,2909.64,0.9717,0.167762
1572.0,0.935606,630.179,2928.48,2926.25,0.937866,0.133926
1584.0,0.873855,630.838,2945.07,2942.83,0.873855,0.0699119
1596.0,0.881322,631.498,2961.62,2959.38,0.873922,0.0699762
1608.0,0.870434,632.157,2978.14,2975.89,0.87125,0.0673016
1620.0,0.854596,632.816,2994.62,2992.36,0.854596,0.0506449
1632.0,0.830839,633.476,3011.07,3008.8,0.831449,0.0274953
1644.0,0.823991,634.135,3027.48,3025.21,0.823791,0.0198346
1656.0,0.822049,634.794,3043.86,3041.58,0.822027,0.018068
1668.0,0.819389,635.454,3060.21,3057.92,0.819315,0.0153533
1680.0,0.817795,636.113,3076.52,3074.22,0.816981,0.0130167
1692.0,0.816219,636.772,3092.8,3090.49,0.816219,0.012252
1704.0,0.812931,637.432,3109.04,3106.73,0.816227,0.0122574
1716.0,0.814556,638.091,3125.25,3122.93,0.814556,0.0105837
1728.0,0.814352,638.751,3141.43,3139.1,0.814352,0.0103771
1740.0,0.815096,639.41,3157.57,3155.24,0.813055,0.0090774
1752.0,0.812211,640.069,3173.68,3171.34,0.811429,0.00744893
1764.0,0.809444,640.729,3189.76,3187.41,0.809566,0.00558402
1776.0,0.80885,641.388,3205.81,3203.45,0.80885,0.00486689
1788.0,0.808893,642.047,3221.82,3219.45,0.808377,0.00439345
1800.0,0.807341,642.707,3237.8,3235.42,0.807341,0.00335754
1812.0,0.806447,643.366,3253.74,3251.36,0.806447,0.00246413
1824.0,0.806897,644.025,3269.66,3267.27,0.806897,0.00291518
1836.0,0.805483,644.685,3285.54,3283.14,0.805483,0.00150257
1848.0,0.808531,645.344,3301.39,3298.98,0.80724,0.00326118
1860.0,0.805517,646.004,3317.2,3314.79,0.805511,0.00153403
1872.0,0.806147,646.663,3332.98,3330.57,0.805379,0.00140403
1884.0,0.801565,647.322,3348.74,3346.31,0.803951,-2.18365e-05
1896.0,0.807184,647.982,3364.46,3362.02,0.805237,0.00126636
1908.0,0.803506,648.641,3380.14,3377.7,0.803506,-0.000462383
1920.0,0.803625,649.3,3395.8,3393.35,0.803625,-0.000341183
1932.0,0.808019,649.96,3411.42,3408.97,0.803507,-0.000457116
1944.0,0.807102,650.619,3427.02,3424.55,0.802864,-0.0010981
1956.0,0.801892,651.278,3442.58,3440.11,0.803374,-0.000586227
1968.0,0.808482,651.938,3458.11,3455.63,0.802983,-0.000975529
1980.0,0.803947,652.597,3473.6,3471.12,0.80177,-0.00218702
1992.0,0.802473,653.257,3489.07,3486.58,0.804505,0.00054924
2004.0,0.802843,653.916,3504.51,3502.01,0.802843,-0.0011116
2016.0,0.801296,654.575,3519.91,3517.4,0.801312,-0.00264161
2028.0,0.80118,655.235,3535.28,3532.77,0.80118,-0.00277289
2040.0,0.802679,655.894,3550.63,3548.1,0.802041,-0.00191151
2047.0,0.802757,656.279,3559.56,3557.04,0.801528,-0.00242445