File: data/processed/processed_data/2024-10-11/2024-10-11_palmiticacidpowder_n_n_n_solid_10000_0_5.csv
Pixels #,Intensity (a.u.),Wavelength (nm),Raman shift (cm-1),Raman shift (cm-1) adjusted,Filtered Intensity (a.u.),Baselined Filtered Intensity (a.u.)
0.0,0.821706,543.803,407.968,406.929,0.820942,0.0196935
13.0,0.820022,544.517,432.091,431.041,0.821741,0.0204925
26.0,0.819442,545.231,456.151,455.089,0.819442,0.0181935
39.0,0.850525,545.946,480.148,479.075,0.821857,0.0206085
52.0,0.822556,546.66,504.082,502.998,0.821276,0.0200275
65.0,0.820586,547.374,527.954,526.858,0.820586,0.0193375
78.0,0.820804,548.088,551.763,550.656,0.819693,0.0184445
91.0,0.826611,548.803,575.511,574.393,0.821147,0.0198985
104.0,0.817941,549.517,599.197,598.067,0.819641,0.0183925
117.0,0.816982,550.231,622.821,621.68,0.816995,0.0157465
130.0,0.818128,550.946,646.384,645.232,0.818283,0.0170345
143.0,0.818809,551.66,669.886,668.723,0.818685,0.0174365
156.0,0.818013,552.374,693.327,692.153,0.816564,0.0153155
169.0,0.815885,553.089,716.708,715.523,0.815885,0.0146365
182.0,0.817323,553.803,740.028,738.832,0.817323,0.0160745
195.0,0.815685,554.517,763.289,762.082,0.815685,0.0144365
208.0,0.81267,555.232,786.489,785.271,0.814192,0.0129435
221.0,0.815767,555.946,809.63,808.401,0.814652,0.0134035
234.0,0.816616,556.66,832.711,831.472,0.816616,0.0153675
247.0,0.818516,557.374,855.733,854.483,0.817624,0.0163755
260.0,0.817044,558.089,878.697,877.435,0.816069,0.0148205
273.0,0.829347,558.803,901.601,900.329,0.82251,0.0212615
286.0,0.815323,559.517,924.448,923.165,0.815323,0.0140745
299.0,0.823202,560.232,947.235,945.942,0.815897,0.0146485
312.0,0.812608,560.946,969.965,968.661,0.812608,0.0113595
325.0,0.811969,561.66,992.637,991.322,0.811969,0.0107205
338.0,0.813213,562.375,1015.25,1013.93,0.812365,0.0111165
351.0,0.813568,563.089,1037.81,1036.47,0.812674,0.0114255
364.0,0.827549,563.803,1060.31,1058.96,0.829537,0.0282885
377.0,0.813741,564.518,1082.75,1081.39,0.812995,0.0117465
390.0,0.814579,565.232,1105.14,1103.77,0.813798,0.0125495
403.0,0.827413,565.946,1127.47,1126.09,0.827226,0.0259775
416.0,0.807226,566.66,1149.74,1148.35,0.80965,0.00840149
429.0,0.808171,567.375,1171.96,1170.56,0.809487,0.00823849
442.0,0.807249,568.089,1194.12,1192.71,0.807467,0.00621849
455.0,0.805489,568.803,1216.23,1214.81,0.806445,0.0051965
468.0,0.805223,569.518,1238.28,1236.85,0.805223,0.00397459
481.0,0.806405,570.232,1260.27,1258.83,0.806348,0.00509987
494.0,0.827967,570.946,1282.21,1280.76,0.814596,0.0133483
507.0,0.820348,571.661,1304.1,1302.63,0.820348,0.0191007
520.0,0.806078,572.375,1325.93,1324.45,0.806078,0.00483116
533.0,0.802232,573.089,1347.7,1346.22,0.803859,0.00261269
546.0,0.805522,573.804,1369.43,1367.93,0.805256,0.0040104
559.0,0.803798,574.518,1391.09,1389.59,0.804162,0.00291738
572.0,0.811933,575.232,1412.71,1411.19,0.811933,0.0106896
585.0,0.842701,575.946,1434.27,1432.74,0.827749,0.0265069
598.0,0.821463,576.661,1455.78,1454.24,0.82098,0.0197392
611.0,0.812658,577.375,1477.23,1475.69,0.812141,0.0109015
624.0,0.804781,578.089,1498.63,1497.08,0.804226,0.00298781
637.0,0.801644,578.804,1519.98,1518.41,0.801223,-1.37464e-05
650.0,0.799422,579.518,1541.27,1539.7,0.799153,-0.00208237
663.0,0.800739,580.232,1562.52,1560.93,0.800186,-0.00104821
676.0,0.797655,580.947,1583.71,1582.11,0.79838,-0.00285322
689.0,0.799026,581.661,1604.85,1603.24,0.799529,-0.00170356
702.0,0.805828,582.375,1625.93,1624.32,0.799579,-0.00165325
715.0,0.80072,583.09,1646.97,1645.34,0.800411,-0.00082108
728.0,0.797926,583.804,1667.95,1666.32,0.798885,-0.002347
741.0,0.79796,584.518,1688.88,1687.24,0.798238,-0.00299424
754.0,0.799731,585.232,1709.77,1708.11,0.799716,-0.0015168
767.0,0.798139,585.947,1730.6,1728.93,0.797798,-0.00343578
780.0,0.797007,586.661,1751.38,1749.7,0.797007,-0.00422829
793.0,0.796848,587.375,1772.1,1770.42,0.79852,-0.00271729
806.0,0.796428,588.09,1792.78,1791.09,0.79686,-0.0043798
819.0,0.796656,588.804,1813.41,1811.71,0.796656,-0.00458692
832.0,0.796374,589.518,1833.99,1832.28,0.796483,-0.0047636
845.0,0.803416,590.233,1854.52,1852.8,0.801508,0.000257138
858.0,0.797823,590.947,1875,1873.27,0.797823,-0.00343253
871.0,0.797542,591.661,1895.43,1893.69,0.79921,-0.00205058
884.0,0.798789,592.376,1915.81,1914.06,0.798658,-0.00260796
897.0,0.798804,593.09,1936.14,1934.38,0.798676,-0.00259576
910.0,0.800644,593.804,1956.42,1954.65,0.79988,-0.001398
923.0,0.799257,594.518,1976.66,1974.88,0.799257,-0.00202756
936.0,0.79614,595.233,1996.84,1995.05,0.799083,-0.00220848
949.0,0.805595,595.947,2016.98,2015.18,0.799978,-0.00132068
962.0,0.802391,596.661,2037.07,2035.26,0.798893,-0.00241312
975.0,0.804747,597.376,2057.11,2055.29,0.800917,-0.000396775
988.0,0.799454,598.09,2077.1,2075.27,0.800242,-0.00107955
1001.0,0.8013,598.804,2097.05,2095.21,0.800941,-0.000388469
1014.0,0.800284,599.519,2116.94,2115.1,0.800284,-0.00105351
1027.0,0.801729,600.233,2136.79,2134.94,0.801729,0.00038344
1040.0,0.807465,600.947,2156.6,2154.73,0.802262,0.000908447
1053.0,0.802089,601.662,2176.35,2174.48,0.802089,0.000727525
1066.0,0.802735,602.376,2196.06,2194.18,0.802431,0.00106174
1079.0,0.804774,603.09,2215.72,2213.83,0.801964,0.00058719
1092.0,0.803807,603.804,2235.34,2233.44,0.802437,0.00105286
1105.0,0.807425,604.519,2254.91,2253,0.803312,0.00192064
1118.0,0.807026,605.233,2274.43,2272.51,0.807026,0.00562761
1131.0,0.805165,605.947,2293.91,2291.98,0.803985,0.00257972
1144.0,0.806862,606.662,2313.34,2311.4,0.805082,0.0036701
1157.0,0.804767,607.376,2332.73,2330.78,0.806746,0.00532774
1170.0,0.803505,608.09,2352.07,2350.11,0.803505,0.00208067
1183.0,0.80756,608.805,2371.36,2369.4,0.804363,0.00293285
1196.0,0.806955,609.519,2390.61,2388.64,0.807631,0.00619526
1209.0,0.806744,610.233,2409.82,2407.83,0.806744,0.00530279
1222.0,0.847472,610.948,2428.97,2426.98,0.806595,0.00514841
1235.0,0.806469,611.662,2448.09,2446.09,0.806601,0.00514913
1248.0,0.807338,612.376,2467.16,2465.15,0.808754,0.0072969
1261.0,0.810752,613.09,2486.19,2484.17,0.806248,0.00478568
1274.0,0.806931,613.805,2505.17,2503.14,0.807768,0.00630054
1287.0,0.824702,614.519,2524.1,2522.07,0.809127,0.00765442
1300.0,0.809245,615.233,2543,2540.95,0.809245,0.00776729
1313.0,0.809488,615.948,2561.85,2559.79,0.809488,0.00800516
1326.0,0.812246,616.662,2580.65,2578.59,0.810461,0.00897304
1339.0,0.812718,617.376,2599.42,2597.34,0.812718,0.0112249
1352.0,0.812224,618.091,2618.13,2616.05,0.812513,0.0110148
1365.0,0.810247,618.805,2636.81,2634.72,0.811016,0.00951266
1378.0,0.815947,619.519,2655.44,2653.34,0.814783,0.0132745
1391.0,0.811633,620.234,2674.03,2671.93,0.815241,0.0137274
1404.0,0.812049,620.948,2692.58,2690.46,0.813953,0.0124343
1417.0,0.819983,621.662,2711.08,2708.96,0.820313,0.0187892
1430.0,0.824855,622.376,2729.55,2727.41,0.823949,0.02242
1443.0,0.818961,623.091,2747.97,2745.82,0.818961,0.0174269
1456.0,0.814883,623.805,2766.34,2764.19,0.814883,0.0133438
1469.0,0.814954,624.519,2784.68,2782.52,0.814101,0.0125566
1482.0,0.816445,625.234,2802.97,2800.8,0.816649,0.0150995
1495.0,0.82204,625.948,2821.22,2819.05,0.821082,0.0195274
1508.0,0.887876,626.662,2839.43,2837.25,0.887876,0.0863163
1521.0,0.909313,627.377,2857.6,2855.41,0.909313,0.107748
1534.0,0.961747,628.091,2875.73,2873.53,0.961747,0.160177
1547.0,0.924156,628.805,2893.82,2891.61,0.924156,0.122581
1560.0,0.881834,629.52,2911.86,2909.64,0.88463,0.0830498
1573.0,0.883053,630.234,2929.87,2927.64,0.876341,0.0747556
1586.0,0.850331,630.948,2947.83,2945.59,0.850331,0.0487405
1599.0,0.834776,631.662,2965.75,2963.51,0.834776,0.0331804
1612.0,0.817519,632.377,2983.63,2981.38,0.817933,0.0163323
1625.0,0.815771,633.091,3001.48,2999.21,0.815979,0.0143731
1638.0,0.812783,633.805,3019.28,3017.01,0.812783,0.011172
1651.0,0.81216,634.52,3037.04,3034.76,0.81299,0.0113739
1664.0,0.808881,635.234,3054.76,3052.47,0.812343,0.0107218
1677.0,0.808293,635.948,3072.44,3070.15,0.810799,0.00917263
1690.0,0.81261,636.663,3090.09,3087.78,0.80984,0.0082085
1703.0,0.809646,637.377,3107.69,3105.38,0.809646,0.00800938
1716.0,0.808564,638.091,3125.25,3122.93,0.808783,0.00714125
1729.0,0.809376,638.806,3142.78,3140.45,0.80853,0.00688312
1742.0,0.806173,639.52,3160.26,3157.92,0.807328,0.005676
1755.0,0.806412,640.234,3177.71,3175.36,0.807859,0.00620187
1768.0,0.807737,640.948,3195.11,3192.76,0.807737,0.00607475
1781.0,0.806914,641.663,3212.48,3210.12,0.807664,0.00599668
1794.0,0.806556,642.377,3229.81,3227.44,0.806556,0.0048837
1807.0,0.808317,643.091,3247.1,3244.72,0.808317,0.00663975
1820.0,0.80754,643.806,3264.36,3261.97,0.80754,0.00585788
1833.0,0.806346,644.52,3281.57,3279.18,0.805606,0.00391914
1846.0,0.820828,645.234,3298.75,3296.34,0.807891,0.00619963
1859.0,0.805418,645.949,3315.88,3313.47,0.806834,0.00513834
1872.0,0.806551,646.663,3332.98,3330.57,0.806278,0.00457829
1885.0,0.805485,647.377,3350.05,3347.62,0.805485,0.00378142
1898.0,0.808383,648.092,3367.07,3364.64,0.806159,0.00445177
1911.0,0.805793,648.806,3384.06,3381.62,0.805638,0.00392738
1924.0,0.80569,649.52,3401.01,3398.56,0.803552,0.00183836
1937.0,0.803588,650.234,3417.92,3415.47,0.804428,0.00271161
1950.0,0.804092,650.949,3434.8,3432.33,0.805975,0.00425615
1963.0,0.803112,651.663,3451.64,3449.16,0.803706,0.00198499
1976.0,0.803082,652.377,3468.44,3465.96,0.804552,0.00282917
1989.0,0.804403,653.092,3485.21,3482.72,0.805794,0.00406968
2002.0,0.803604,653.806,3501.93,3499.44,0.804647,0.0029215
2015.0,0.806175,654.52,3518.63,3516.12,0.804897,0.00317063
2028.0,0.803964,655.235,3535.28,3532.77,0.80431,0.002583
2041.0,0.807178,655.949,3551.9,3549.38,0.806055,0.00432775
2047.0,0.806838,656.279,3559.56,3557.04,0.805264,0.00353671