File: data/processed/processed_data/2024-08-27/2024-08-27_magnesiumsulfateheptahydrate_n_n_y_solid_5000_0_5.csv
Pixels #,Intensity (a.u.),Wavelength (nm),Raman shift (cm-1),Raman shift (cm-1) adjusted,Filtered Intensity (a.u.),Baselined Filtered Intensity (a.u.)
0.0,1.54216,543.317,391.539,390.861,1.54013,0.00495836
12.0,1.54093,543.978,413.886,413.173,1.54093,0.00575836
24.0,1.53982,544.638,436.178,435.431,1.53982,0.00464836
36.0,1.54123,545.299,458.416,457.635,1.54123,0.00605836
48.0,1.5419,545.959,480.6,479.785,1.54139,0.00621836
60.0,1.53978,546.62,502.731,501.882,1.5394,0.00422836
72.0,1.5406,547.28,524.809,523.925,1.54018,0.00500836
84.0,1.54023,547.94,546.833,545.915,1.54048,0.00530836
96.0,1.54083,548.601,568.804,567.852,1.54029,0.00511836
108.0,1.54045,549.261,590.722,589.737,1.54045,0.00527836
120.0,1.54098,549.922,612.588,611.568,1.54058,0.00540836
132.0,1.53858,550.582,634.401,633.348,1.53864,0.00346836
144.0,1.54034,551.243,656.162,655.075,1.54034,0.00516852
156.0,1.5398,551.903,677.871,676.751,1.53967,0.00449873
168.0,1.53989,552.564,699.528,698.374,1.53952,0.00434906
180.0,1.53933,553.224,721.133,719.946,1.53933,0.0041595
192.0,1.5402,553.885,742.687,741.466,1.53962,0.00445002
204.0,1.5397,554.545,764.19,762.935,1.53979,0.00462066
216.0,1.54078,555.205,785.641,784.353,1.5405,0.00533147
228.0,1.54074,555.866,807.041,805.721,1.54074,0.00557232
240.0,1.54043,556.526,828.391,827.037,1.54084,0.00567318
252.0,1.54137,557.187,849.689,848.303,1.54109,0.00592403
264.0,1.54104,557.847,870.938,869.519,1.54067,0.00550489
276.0,1.54113,558.508,892.136,890.684,1.54122,0.00605574
288.0,1.54014,559.168,913.284,911.799,1.5402,0.0050366
300.0,1.54057,559.829,934.382,932.865,1.54083,0.00566745
312.0,1.5408,560.489,955.431,953.881,1.54054,0.00537831
324.0,1.56152,561.15,976.43,974.847,1.56152,0.0263592
336.0,1.57672,561.81,997.379,995.765,1.57672,0.04156
348.0,1.54606,562.47,1018.28,1016.63,1.54606,0.0109009
360.0,1.54093,563.131,1039.13,1037.45,1.54083,0.00567173
372.0,1.54489,563.791,1059.93,1058.22,1.54448,0.00932258
384.0,1.54206,564.452,1080.69,1078.94,1.54236,0.00720344
396.0,1.54274,565.112,1101.39,1099.62,1.54243,0.00727429
408.0,1.54167,565.773,1122.05,1120.24,1.54153,0.00637515
420.0,1.54219,566.433,1142.66,1140.82,1.54221,0.007056
432.0,1.54167,567.094,1163.22,1161.35,1.54111,0.00595686
444.0,1.53975,567.754,1183.73,1181.83,1.53993,0.00477771
456.0,1.54003,568.415,1204.2,1202.26,1.53987,0.0047186
468.0,1.53941,569.075,1224.62,1222.65,1.53941,0.00425958
480.0,1.5382,569.735,1244.99,1242.99,1.53823,0.00308077
492.0,1.53727,570.396,1265.31,1263.28,1.53771,0.00256235
504.0,1.53723,571.056,1285.59,1283.52,1.53723,0.00208431
516.0,1.53807,571.717,1305.81,1303.72,1.53807,0.0029266
528.0,1.53876,572.377,1326,1323.87,1.53844,0.00329926
540.0,1.53709,573.038,1346.13,1343.98,1.53723,0.00209217
552.0,1.53809,573.698,1366.22,1364.04,1.53716,0.0020254
564.0,1.53726,574.359,1386.27,1384.05,1.5377,0.00256895
576.0,1.53776,575.019,1406.26,1404.02,1.53745,0.00232282
588.0,1.53758,575.68,1426.22,1423.94,1.53758,0.00245702
600.0,1.53736,576.34,1446.12,1443.81,1.53731,0.00219153
612.0,1.53652,577,1465.98,1463.64,1.53668,0.00156626
624.0,1.53716,577.661,1485.8,1483.43,1.53697,0.00186123
636.0,1.53623,578.321,1505.57,1503.17,1.53623,0.00112645
648.0,1.53523,578.982,1525.29,1522.86,1.53583,0.000731843
660.0,1.53683,579.642,1544.97,1542.51,1.53672,0.00162739
672.0,1.53632,580.303,1564.61,1562.11,1.53632,0.00123315
684.0,1.53614,580.963,1584.2,1581.67,1.53658,0.00149906
696.0,1.53662,581.624,1603.74,1601.19,1.53662,0.00154513
708.0,1.53731,582.284,1623.24,1620.66,1.53727,0.00220139
720.0,1.53499,582.945,1642.7,1640.09,1.53518,0.00011789
732.0,1.53616,583.605,1662.11,1659.47,1.53626,0.00120452
744.0,1.53669,584.265,1681.48,1678.81,1.53653,0.00148136
756.0,1.5372,584.926,1700.81,1698.11,1.53678,0.00173841
768.0,1.5364,585.586,1720.09,1717.36,1.5362,0.00116564
780.0,1.53445,586.247,1739.33,1736.57,1.53445,-0.000577009
792.0,1.53577,586.907,1758.52,1755.73,1.53577,0.000750365
804.0,1.53518,587.568,1777.68,1774.86,1.53514,0.000127802
816.0,1.53445,588.228,1796.79,1793.93,1.53456,-0.000444784
828.0,1.53528,588.889,1815.85,1812.97,1.53516,0.00016258
840.0,1.53326,589.549,1834.88,1831.97,1.53371,-0.0012801
852.0,1.53557,590.21,1853.86,1850.92,1.53511,0.000127119
864.0,1.53575,590.87,1872.79,1869.83,1.53582,0.000844358
876.0,1.53482,591.53,1891.69,1888.69,1.53476,-0.000208342
888.0,1.53458,592.191,1910.55,1907.52,1.53458,-0.000381052
900.0,1.53422,592.851,1929.36,1926.3,1.53439,-0.000563795
912.0,1.53426,593.512,1948.13,1945.04,1.53426,-0.000686607
924.0,1.53461,594.172,1966.86,1963.74,1.53461,-0.000329502
936.0,1.53357,594.833,1985.54,1982.4,1.53357,-0.00136247
948.0,1.53475,595.493,2004.19,2001.02,1.53437,-0.000555497
960.0,1.53263,596.154,2022.79,2019.59,1.5329,-0.00201861
972.0,1.5351,596.814,2041.35,2038.13,1.53469,-0.000221882
984.0,1.5343,597.475,2059.88,2056.62,1.53422,-0.000685216
996.0,1.53472,598.135,2078.36,2075.07,1.53396,-0.000938687
1008.0,1.53384,598.795,2096.8,2093.48,1.53406,-0.000832309
1020.0,1.53434,599.456,2115.2,2111.85,1.53409,-0.00079605
1032.0,1.53441,600.116,2133.56,2130.18,1.53457,-0.000309909
1044.0,1.5336,600.777,2151.88,2148.48,1.53372,-0.00115386
1056.0,1.53393,601.437,2170.15,2166.73,1.53415,-0.000717954
1068.0,1.53405,602.098,2188.39,2184.94,1.5339,-0.000962177
1080.0,1.53436,602.758,2206.59,2203.11,1.53443,-0.000426513
1092.0,1.53344,603.419,2224.75,2221.24,1.53391,-0.000940885
1104.0,1.53388,604.079,2242.87,2239.33,1.53388,-0.000965324
1116.0,1.5341,604.74,2260.95,2257.38,1.53494,0.000100179
1128.0,1.53419,605.4,2278.99,2275.39,1.53419,-0.000644369
1140.0,1.53416,606.06,2296.99,2293.36,1.53416,-0.000669013
1152.0,1.53423,606.721,2314.95,2311.3,1.53423,-0.000593728
1164.0,1.53369,607.381,2332.87,2329.19,1.53373,-0.00108851
1176.0,1.53408,608.042,2350.75,2347.05,1.53435,-0.000463403
1188.0,1.53424,608.702,2368.6,2364.86,1.53424,-0.000568382
1200.0,1.53332,609.363,2386.4,2382.64,1.53404,-0.000763484
1212.0,1.53339,610.023,2404.17,2400.38,1.53362,-0.00117869
1224.0,1.53328,610.684,2421.9,2418.08,1.53331,-0.00148403
1236.0,1.53361,611.344,2439.59,2435.75,1.53361,-0.00117955
1248.0,1.53511,612.005,2457.24,2453.37,1.53441,-0.000375243
1260.0,1.53259,612.665,2474.86,2470.96,1.53259,-0.00219103
1272.0,1.53299,613.325,2492.43,2488.51,1.5332,-0.00157701
1284.0,1.53349,613.986,2509.97,2506.02,1.53349,-0.00128321
1296.0,1.5335,614.646,2527.47,2523.49,1.53379,-0.000979554
1308.0,1.53361,615.307,2544.94,2540.93,1.53372,-0.00104603
1320.0,1.53408,615.967,2562.36,2558.33,1.53427,-0.000492678
1332.0,1.53303,616.628,2579.75,2575.69,1.53303,-0.00172944
1344.0,1.53509,617.288,2597.1,2593.01,1.53471,-4.63886e-05
1356.0,1.53463,617.949,2614.42,2610.3,1.53463,-0.00012341
1368.0,1.53372,618.609,2631.69,2627.55,1.53392,-0.000830477
1380.0,1.53397,619.27,2648.93,2644.77,1.53422,-0.000527694
1392.0,1.5326,619.93,2666.14,2661.94,1.5339,-0.000845013
1404.0,1.53325,620.59,2683.31,2679.08,1.53317,-0.00157242
1416.0,1.53493,621.251,2700.44,2696.19,1.53465,-9.00063e-05
1428.0,1.53421,621.911,2717.53,2713.25,1.53371,-0.00102772
1440.0,1.53297,622.572,2734.59,2730.29,1.53333,-0.00140561
1452.0,1.53164,623.232,2751.61,2747.28,1.53238,-0.00235365
1464.0,1.53407,623.893,2768.6,2764.24,1.53352,-0.00121193
1476.0,1.53337,624.553,2785.54,2781.16,1.53337,-0.00136045
1488.0,1.53223,625.214,2802.46,2798.05,1.53249,-0.0022392
1500.0,1.53227,625.874,2819.34,2814.9,1.53227,-0.0024582
1512.0,1.53296,626.535,2836.18,2831.72,1.53296,-0.00176747
1524.0,1.53337,627.195,2852.99,2848.5,1.53343,-0.00129701
1536.0,1.53362,627.855,2869.76,2865.25,1.53318,-0.00154679
1548.0,1.53245,628.516,2886.5,2881.96,1.53284,-0.0018868
1560.0,1.53462,629.176,2903.2,2898.63,1.53399,-0.000737018
1572.0,1.53321,629.837,2919.86,2915.28,1.53321,-0.00151745
1584.0,1.53449,630.497,2936.49,2931.88,1.53431,-0.000418111
1596.0,1.53341,631.158,2953.09,2948.45,1.53373,-0.000998877
1608.0,1.53301,631.818,2969.65,2964.99,1.53328,-0.00144979
1620.0,1.53485,632.479,2986.18,2981.49,1.53404,-0.000690897
1632.0,1.5348,633.139,3002.67,2997.96,1.53418,-0.000552151
1644.0,1.53369,633.8,3019.13,3014.39,1.53383,-0.000903523
1656.0,1.53553,634.46,3035.56,3030.79,1.53553,0.000794983
1668.0,1.53517,635.12,3051.95,3047.15,1.53517,0.000433523
1680.0,1.5342,635.781,3068.3,3063.49,1.53456,-0.000177938
1692.0,1.53527,636.441,3084.63,3079.78,1.53527,0.000530549
1704.0,1.53585,637.102,3100.91,3096.05,1.53618,0.00143909
1716.0,1.53633,637.762,3117.17,3112.28,1.53625,0.00150787
1728.0,1.53737,638.423,3133.39,3128.47,1.53737,0.00262692
1740.0,1.53873,639.083,3149.58,3144.63,1.53861,0.00386637
1752.0,1.54057,639.744,3165.73,3160.76,1.54057,0.00582627
1764.0,1.54106,640.404,3181.85,3176.86,1.54106,0.00631627
1776.0,1.5425,641.065,3197.94,3192.92,1.5425,0.00775627
1788.0,1.54472,641.725,3213.99,3208.95,1.54438,0.00963627
1800.0,1.5459,642.385,3230.01,3224.95,1.54608,0.0113363
1812.0,1.54718,643.046,3246,3240.91,1.54718,0.0124363
1824.0,1.54924,643.706,3261.96,3256.84,1.54924,0.0144963
1836.0,1.549,644.367,3277.88,3272.74,1.54962,0.0148763
1848.0,1.55092,645.027,3293.77,3288.61,1.55092,0.0161763
1860.0,1.54981,645.688,3309.63,3304.44,1.54981,0.0150663
1872.0,1.55127,646.348,3325.45,3320.24,1.55127,0.0165263
1884.0,1.54947,647.009,3341.25,3336.01,1.55034,0.0155963
1896.0,1.5505,647.669,3357.01,3351.74,1.5505,0.0157563
1908.0,1.55027,648.33,3372.74,3367.45,1.55026,0.0155163
1920.0,1.55136,648.99,3388.43,3383.12,1.55038,0.0156363
1932.0,1.55175,649.65,3404.1,3398.76,1.55175,0.0170063
1944.0,1.55105,650.311,3419.73,3414.37,1.55131,0.0165663
1956.0,1.5534,650.971,3435.33,3429.95,1.5531,0.0183563
1968.0,1.55364,651.632,3450.9,3445.49,1.55302,0.0182763
1980.0,1.55363,652.292,3466.44,3461.01,1.55332,0.0185763
1992.0,1.55512,652.953,3481.95,3476.49,1.55512,0.0203763
2004.0,1.55397,653.613,3497.42,3491.94,1.55305,0.0183063
2016.0,1.55349,654.274,3512.87,3507.36,1.55379,0.0190463
2028.0,1.55257,654.934,3528.28,3522.75,1.55257,0.0178263
2040.0,1.5527,655.595,3543.66,3538.11,1.55264,0.0178963
2047.0,1.55139,655.98,3552.62,3547.05,1.55126,0.0165163