File: data/processed/processed_data/2024-08-27/2024-08-27_borosilicatetube_n_n_y_liquid_1000_0_5.csv
Pixels #,Intensity (a.u.),Wavelength (nm),Raman shift (cm-1),Raman shift (cm-1) adjusted,Filtered Intensity (a.u.),Baselined Filtered Intensity (a.u.)
0.0,7.55734,543.324,391.783,392.437,7.5571,-0.0129026
12.0,7.55837,543.984,414.098,414.726,7.55754,-0.0124636
24.0,7.55611,544.644,436.359,436.962,7.55632,-0.0136864
36.0,7.55972,545.303,458.566,459.143,7.55901,-0.0110011
48.0,7.55986,545.963,480.719,481.271,7.55943,-0.0105874
60.0,7.55612,546.622,502.819,503.346,7.55651,-0.0135155
72.0,7.55947,547.282,524.866,525.367,7.55805,-0.0119855
84.0,7.55767,547.941,546.859,547.335,7.55767,-0.0123773
96.0,7.55952,548.601,568.8,569.251,7.55881,-0.0112508
108.0,7.55803,549.26,590.688,591.114,7.55803,-0.0120459
120.0,7.56074,549.92,612.523,612.924,7.55861,-0.0114828
132.0,7.55778,550.579,634.307,634.682,7.55776,-0.0123515
144.0,7.55885,551.239,656.038,656.388,7.5585,-0.0116321
156.0,7.55369,551.898,677.717,678.043,7.55432,-0.0158344
168.0,7.55734,552.558,699.344,699.645,7.55757,-0.0126087
180.0,7.55702,553.218,720.92,721.196,7.55667,-0.0135349
192.0,7.55929,553.877,742.444,742.696,7.55907,-0.0111629
204.0,7.55945,554.537,763.917,764.144,7.56013,-0.0101326
216.0,7.56379,555.196,785.339,785.542,7.56379,-0.00650379
228.0,7.56463,555.856,806.711,806.889,7.56368,-0.00664617
240.0,7.56802,556.515,828.031,828.185,7.56802,-0.00233952
252.0,7.56996,557.175,849.301,849.431,7.56958,-0.000813365
264.0,7.57174,557.834,870.521,870.626,7.57174,0.00131254
276.0,7.56703,558.494,891.691,891.772,7.56901,-0.00145157
288.0,7.56867,559.153,912.811,912.868,7.56867,-0.00182584
300.0,7.56991,559.813,933.881,933.913,7.56991,-0.000620191
312.0,7.57012,560.472,954.901,954.91,7.57012,-0.000444524
324.0,7.56913,561.132,975.872,975.857,7.56924,-0.00135889
336.0,7.56973,561.791,996.794,996.755,7.5697,-0.000933396
348.0,7.57036,562.451,1017.67,1017.6,7.57036,-0.000308019
360.0,7.57316,563.111,1038.49,1038.4,7.57246,0.00175734
372.0,7.57103,563.77,1059.27,1059.15,7.57103,0.000292836
384.0,7.56946,564.43,1079.99,1079.86,7.57001,-0.000761628
396.0,7.56956,565.089,1100.67,1100.51,7.56956,-0.00124612
408.0,7.57112,565.749,1121.3,1121.12,7.57106,0.000219363
420.0,7.56875,566.408,1141.88,1141.68,7.5691,-0.00177516
432.0,7.5717,567.068,1162.42,1162.19,7.5716,0.00069016
444.0,7.57028,567.727,1182.9,1182.65,7.57028,-0.000664544
456.0,7.573,568.387,1203.34,1203.07,7.573,0.00202078
468.0,7.5711,569.046,1223.73,1223.43,7.57184,0.000826341
480.0,7.57315,569.706,1244.08,1243.75,7.5731,0.00205206
492.0,7.56997,570.365,1264.37,1264.03,7.57079,-0.000292008
504.0,7.56985,571.025,1284.63,1284.26,7.56994,-0.001176
516.0,7.57172,571.685,1304.83,1304.44,7.57147,0.00031994
528.0,7.57173,572.344,1324.99,1324.57,7.57191,0.000725945
540.0,7.57085,573.004,1345.1,1344.66,7.57104,-0.000177945
552.0,7.57331,573.663,1365.16,1364.7,7.57241,0.00115832
564.0,7.57131,574.323,1385.18,1384.69,7.57248,0.00119471
576.0,7.57367,574.982,1405.15,1404.64,7.57397,0.00265121
588.0,7.57194,575.642,1425.08,1424.55,7.57226,0.000907928
600.0,7.57045,576.301,1444.96,1444.41,7.57045,-0.000935328
612.0,7.5701,576.961,1464.79,1464.22,7.57178,0.000361338
624.0,7.57019,577.62,1484.58,1483.99,7.57138,-7.19636e-05
636.0,7.57267,578.28,1504.33,1503.71,7.57239,0.000904797
648.0,7.57006,578.939,1524.03,1523.39,7.57045,-0.00106835
660.0,7.57266,579.599,1543.68,1543.02,7.57266,0.00110851
672.0,7.57286,580.259,1563.3,1562.61,7.57308,0.00149549
684.0,7.57446,580.918,1582.86,1582.15,7.57305,0.0014326
696.0,7.5713,581.578,1602.38,1601.65,7.5713,-0.000350252
708.0,7.57185,582.237,1621.86,1621.1,7.57273,0.00104686
720.0,7.56962,582.897,1641.29,1640.52,7.56962,-0.00209592
732.0,7.57231,583.556,1660.68,1659.88,7.57231,0.000561167
744.0,7.57204,584.216,1680.03,1679.21,7.572,0.000218285
756.0,7.57377,584.875,1699.33,1698.49,7.57377,0.00195537
768.0,7.57114,585.535,1718.59,1717.72,7.57114,-0.000707538
780.0,7.5709,586.194,1737.8,1736.92,7.5709,-0.000980571
792.0,7.57026,586.854,1756.98,1756.07,7.57126,-0.000653651
804.0,7.57055,587.513,1776.11,1775.17,7.57122,-0.000726786
816.0,7.56961,588.173,1795.19,1794.24,7.56961,-0.00237004
828.0,7.57143,588.833,1814.24,1813.26,7.57143,-0.000583478
840.0,7.56992,589.492,1833.24,1832.24,7.56992,-0.002127
852.0,7.57399,590.152,1852.19,1851.17,7.57273,0.000649285
864.0,7.57448,590.811,1871.11,1870.07,7.57448,0.00236563
876.0,7.57183,591.471,1889.98,1888.92,7.57183,-0.000317831
888.0,7.57191,592.13,1908.82,1907.73,7.57332,0.00113878
900.0,7.57223,592.79,1927.61,1926.5,7.57223,1.5558e-05
912.0,7.57119,593.449,1946.35,1945.23,7.57233,8.24826e-05
924.0,7.57316,594.109,1965.06,1963.91,7.5731,0.000819351
936.0,7.57118,594.768,1983.72,1982.55,7.5713,-0.00101378
948.0,7.57085,595.428,2002.35,2001.16,7.57094,-0.00140689
960.0,7.56898,596.087,2020.93,2019.72,7.56898,-0.00340014
972.0,7.57253,596.747,2039.47,2038.24,7.57185,-0.000563615
984.0,7.56999,597.407,2057.97,2056.72,7.56982,-0.0026272
996.0,7.57154,598.066,2076.43,2075.15,7.57135,-0.00113111
1008.0,7.57181,598.726,2094.85,2093.55,7.57022,-0.00229528
1020.0,7.56955,599.385,2113.23,2111.91,7.56955,-0.00299976
1032.0,7.57061,600.045,2131.57,2130.23,7.57061,-0.00197471
1044.0,7.56642,600.704,2149.86,2148.5,7.56786,-0.00475998
1056.0,7.57031,601.364,2168.12,2166.74,7.57031,-0.00234576
1068.0,7.56872,602.023,2186.34,2184.94,7.56872,-0.00397201
1080.0,7.56906,602.683,2204.52,2203.09,7.56954,-0.00318869
1092.0,7.56804,603.342,2222.66,2221.21,7.56957,-0.00319579
1104.0,7.56982,604.002,2240.75,2239.29,7.56982,-0.00298336
1116.0,7.57047,604.661,2258.81,2257.33,7.57011,-0.00273148
1128.0,7.56886,605.321,2276.83,2275.33,7.56843,-0.00445014
1140.0,7.56873,605.981,2294.81,2293.28,7.56952,-0.00339942
1152.0,7.56775,606.64,2312.75,2311.21,7.5679,-0.00505932
1164.0,7.56683,607.3,2330.66,2329.09,7.56649,-0.00650986
1176.0,7.56902,607.959,2348.52,2346.93,7.56902,-0.0040212
1188.0,7.56534,608.619,2366.34,2364.73,7.56604,-0.00704325
1200.0,7.56688,609.278,2384.13,2382.5,7.56688,-0.00624613
1212.0,7.56704,609.938,2401.88,2400.23,7.56704,-0.00612987
1224.0,7.56475,610.597,2419.59,2417.92,7.56528,-0.00793455
1236.0,7.56523,611.257,2437.26,2435.57,7.56641,-0.00685029
1248.0,7.5679,611.916,2454.89,2453.18,7.56586,-0.00744703
1260.0,7.56419,612.576,2472.48,2470.75,7.56392,-0.00943481
1272.0,7.56496,613.235,2490.04,2488.29,7.56496,-0.00844388
1284.0,7.56416,613.895,2507.56,2505.79,7.56416,-0.0092943
1296.0,7.56452,614.555,2525.04,2523.25,7.56596,-0.007546
1308.0,7.56225,615.214,2542.49,2540.68,7.56277,-0.0107889
1320.0,7.56365,615.874,2559.89,2558.06,7.56365,-0.00996325
1332.0,7.56449,616.533,2577.26,2575.41,7.5637,-0.00996903
1344.0,7.56263,617.193,2594.6,2592.73,7.56263,-0.0110962
1356.0,7.56502,617.852,2611.89,2610,7.56502,-0.00876488
1368.0,7.56222,618.512,2629.15,2627.24,7.56222,-0.0116251
1380.0,7.56179,619.171,2646.37,2644.44,7.56179,-0.012117
1392.0,7.55939,619.831,2663.56,2661.61,7.56078,-0.0131906
1404.0,7.5607,620.49,2680.71,2678.74,7.56034,-0.013696
1416.0,7.56171,621.15,2697.82,2695.83,7.56116,-0.0129432
1428.0,7.56069,621.809,2714.89,2712.89,7.5606,-0.0135723
1440.0,7.55971,622.469,2731.93,2729.91,7.56084,-0.0134033
1452.0,7.55871,623.128,2748.94,2746.89,7.55975,-0.0145663
1464.0,7.5628,623.788,2765.91,2763.84,7.5612,-0.0131913
1476.0,7.55672,624.448,2782.84,2780.75,7.55804,-0.0164284
1488.0,7.55814,625.107,2799.73,2797.63,7.5581,-0.0164477
1500.0,7.55855,625.767,2816.59,2814.47,7.55855,-0.0160793
1512.0,7.55906,626.426,2833.42,2831.28,7.55946,-0.015253
1524.0,7.56073,627.086,2850.21,2848.05,7.56059,-0.0142089
1536.0,7.55977,627.745,2866.96,2864.78,7.55952,-0.015367
1548.0,7.55929,628.405,2883.68,2881.48,7.55907,-0.0159074
1560.0,7.56131,629.064,2900.37,2898.15,7.56131,-0.0137601
1572.0,7.56088,629.724,2917.02,2914.78,7.56088,-0.014285
1584.0,7.55875,630.383,2933.63,2931.37,7.55882,-0.0164423
1596.0,7.55923,631.043,2950.21,2947.93,7.55925,-0.0161119
1608.0,7.55746,631.702,2966.76,2964.46,7.55822,-0.0172437
1620.0,7.55954,632.362,2983.27,2980.95,7.55954,-0.0160279
1632.0,7.5589,633.022,2999.74,2997.41,7.55858,-0.0170944
1644.0,7.55781,633.681,3016.18,3013.83,7.5579,-0.0178835
1656.0,7.55988,634.341,3032.59,3030.22,7.55988,-0.0160151
1668.0,7.55816,635,3048.97,3046.57,7.5589,-0.017109
1680.0,7.55864,635.66,3065.3,3062.89,7.5594,-0.0167252
1692.0,7.55951,636.319,3081.61,3079.18,7.55876,-0.017484
1704.0,7.55886,636.979,3097.88,3095.44,7.55886,-0.0175052
1716.0,7.5572,637.638,3114.12,3111.65,7.5572,-0.019289
1728.0,7.55754,638.298,3130.33,3127.84,7.55675,-0.0198654
1740.0,7.55955,638.957,3146.5,3143.99,7.55955,-0.0171945
1752.0,7.55946,639.617,3162.63,3160.11,7.55902,-0.0178562
1764.0,7.55855,640.276,3178.74,3176.2,7.55855,-0.0184606
1776.0,7.55665,640.936,3194.81,3192.25,7.55667,-0.0204776
1788.0,7.55668,641.596,3210.85,3208.27,7.55677,-0.0205175
1800.0,7.55684,642.255,3226.85,3224.26,7.55728,-0.0201501
1812.0,7.5582,642.915,3242.83,3240.21,7.5582,-0.0193755
1824.0,7.55692,643.574,3258.77,3256.14,7.55738,-0.0203437
1836.0,7.55769,644.234,3274.67,3272.03,7.55804,-0.0198347
1848.0,7.56072,644.893,3290.55,3287.88,7.56107,-0.0169584
1860.0,7.56262,645.553,3306.39,3303.71,7.56323,-0.0149545
1872.0,7.57247,646.212,3322.2,3319.5,7.57247,-0.00587256
1884.0,7.59094,646.872,3337.98,3335.26,7.59094,0.0124386
1896.0,7.62327,647.531,3353.73,3350.99,7.6231,0.0444416
1908.0,7.5972,648.191,3369.44,3366.68,7.59718,0.0183701
1920.0,7.62538,648.85,3385.12,3382.34,7.62538,0.046422
1932.0,7.61082,649.51,3400.77,3397.98,7.61082,0.0317189
1944.0,7.62314,650.17,3416.39,3413.58,7.62314,0.043901
1956.0,7.65365,650.829,3431.98,3429.14,7.65365,0.0742806
1968.0,7.68291,651.489,3447.53,3444.68,7.68291,0.103421
1980.0,7.67109,652.148,3463.05,3460.19,7.67292,0.0933257
1992.0,7.67839,652.808,3478.55,3475.66,7.67839,0.0987064
2004.0,7.71656,653.467,3494.01,3491.1,7.71656,0.136803
2016.0,7.65198,654.127,3509.44,3506.52,7.65198,0.0721678
2028.0,7.70719,654.786,3524.83,3521.9,7.70737,0.127517
2040.0,7.68985,655.446,3540.2,3537.25,7.69419,0.114315
2047.0,7.76909,655.831,3549.15,3546.19,7.73851,0.158631