File: data/processed/processed_data/2024-09-03/2024-09-03_glycinepowder_n_n_y_solid_1000_0_10.csv
Pixels #,Intensity (a.u.),Wavelength (nm),Raman shift (cm-1),Raman shift (cm-1) adjusted,Filtered Intensity (a.u.),Baselined Filtered Intensity (a.u.)
0.0,7.56219,543.337,392.223,393.994,7.56196,-0.0639041
12.0,7.56191,543.997,414.551,416.293,7.56249,-0.063379
24.0,7.56344,544.657,436.825,438.537,7.56299,-0.0628927
36.0,7.56392,545.317,459.044,460.728,7.56392,-0.0619854
48.0,7.56643,545.977,481.21,482.866,7.56582,-0.0601168
60.0,7.58506,546.637,503.323,504.95,7.58506,-0.0409165
72.0,7.61077,547.297,525.382,526.981,7.61077,-0.0152522
84.0,7.63427,547.957,547.388,548.958,7.63427,0.00819985
96.0,7.6425,548.617,569.341,570.883,7.64085,0.0147328
108.0,7.63978,549.277,591.241,592.755,7.64033,0.0141679
120.0,7.64695,549.937,613.089,614.575,7.6457,0.0194953
132.0,7.64108,550.597,634.884,636.342,7.64108,0.0148353
144.0,7.64719,551.257,656.627,658.057,7.64714,0.0208576
156.0,7.65255,551.917,678.319,679.72,7.6531,0.0267827
168.0,7.66826,552.577,699.958,701.332,7.66826,0.0419119
180.0,7.6935,553.237,721.546,722.892,7.6935,0.0671273
192.0,7.73708,553.897,743.082,744.4,7.73708,0.110693
204.0,7.79779,554.557,764.567,765.858,7.79779,0.171401
216.0,7.89324,555.217,786.001,787.264,7.89324,0.266851
228.0,8.02015,555.876,807.384,808.62,8.02015,0.393761
240.0,8.17049,556.536,828.716,829.924,8.17049,0.544101
252.0,8.31432,557.196,849.998,851.179,8.31432,0.687931
264.0,8.42724,557.856,871.23,872.383,8.42724,0.800851
276.0,8.53136,558.516,892.411,893.537,8.53136,0.904971
288.0,8.5052,559.176,913.542,914.641,8.50538,0.878991
300.0,8.51687,559.836,934.624,935.695,8.51592,0.889531
312.0,8.51697,560.496,955.656,956.7,8.51501,0.888621
324.0,8.52006,561.156,976.638,977.655,8.52137,0.894981
336.0,8.53418,561.816,997.571,998.562,8.53423,0.907841
348.0,8.55644,562.476,1018.45,1019.42,8.55644,0.930051
360.0,8.58315,563.136,1039.29,1040.23,8.58315,0.956761
372.0,8.58938,563.796,1060.08,1060.99,8.58733,0.960941
384.0,8.59402,564.456,1080.81,1081.7,8.59402,0.967631
396.0,8.59948,565.116,1101.5,1102.36,8.60099,0.974601
408.0,8.60231,565.776,1122.14,1122.97,8.60243,0.976041
420.0,8.61336,566.436,1142.74,1143.54,8.61449,0.988101
432.0,8.62205,567.096,1163.28,1164.06,8.62205,0.995661
444.0,8.62663,567.756,1183.78,1184.53,8.62688,1.00049
456.0,8.63656,568.416,1204.23,1204.95,8.63755,1.01116
468.0,8.6423,569.075,1224.63,1225.33,8.64347,1.01708
480.0,8.64868,569.735,1244.99,1245.66,8.64868,1.02229
492.0,8.65487,570.395,1265.29,1265.94,8.65485,1.02846
504.0,8.66282,571.055,1285.55,1286.17,8.66282,1.03643
516.0,8.69022,571.715,1305.77,1306.36,8.69022,1.06383
528.0,8.75173,572.375,1325.94,1326.5,8.75173,1.12534
540.0,8.68968,573.035,1346.06,1346.6,8.6897,1.06331
552.0,8.69609,573.695,1366.13,1366.65,8.69435,1.06796
564.0,8.71249,574.355,1386.16,1386.65,8.71249,1.0861
576.0,8.74594,575.015,1406.14,1406.61,8.74594,1.11955
588.0,8.72421,575.675,1426.08,1426.52,8.72541,1.09902
600.0,8.73389,576.335,1445.97,1446.38,8.73389,1.1075
612.0,8.72273,576.995,1465.82,1466.2,8.72369,1.0973
624.0,8.72739,577.655,1485.62,1485.98,8.7274,1.10101
636.0,8.73838,578.315,1505.37,1505.71,8.73838,1.11199
648.0,8.74303,578.975,1525.08,1525.39,8.7431,1.11671
660.0,8.75352,579.635,1544.75,1545.03,8.75202,1.12563
672.0,8.76395,580.295,1564.37,1564.63,8.76255,1.13616
684.0,8.75267,580.955,1583.94,1584.18,8.75288,1.12649
696.0,8.75133,581.614,1603.47,1603.68,8.75133,1.12494
708.0,8.75548,582.274,1622.96,1623.15,8.75597,1.12958
720.0,8.75218,582.934,1642.4,1642.56,8.75082,1.12443
732.0,8.75575,583.594,1661.8,1661.94,8.75682,1.13043
744.0,8.75495,584.254,1681.16,1681.27,8.7554,1.12901
756.0,8.75825,584.914,1700.47,1700.55,8.75825,1.13186
768.0,8.75491,585.574,1719.74,1719.8,8.75648,1.13009
780.0,8.74839,586.234,1738.96,1739,8.75367,1.12728
792.0,8.75482,586.894,1758.14,1758.15,8.75614,1.12975
804.0,8.75716,587.554,1777.28,1777.27,8.75664,1.13025
816.0,8.75266,588.214,1796.38,1796.34,8.75266,1.12627
828.0,8.75918,588.874,1815.43,1815.37,8.75888,1.13249
840.0,8.76045,589.534,1834.44,1834.35,8.76045,1.13406
852.0,8.76354,590.194,1853.41,1853.29,8.76354,1.13715
864.0,8.76541,590.854,1872.33,1872.2,8.76616,1.13977
876.0,8.757,591.514,1891.21,1891.05,8.75933,1.13294
888.0,8.75967,592.174,1910.05,1909.87,8.75967,1.13328
900.0,8.75059,592.834,1928.85,1928.64,8.75273,1.12634
912.0,8.75213,593.494,1947.61,1947.38,8.75285,1.12646
924.0,8.75013,594.154,1966.33,1966.07,8.75032,1.12393
936.0,8.74098,594.813,1985,1984.72,8.7448,1.11841
948.0,8.7365,595.473,2003.63,2003.33,8.73775,1.11136
960.0,8.73183,596.133,2022.22,2021.89,8.73002,1.10363
972.0,8.73205,596.793,2040.77,2040.42,8.72969,1.1033
984.0,8.71676,597.453,2059.28,2058.91,8.71676,1.09037
996.0,8.71427,598.113,2077.75,2077.35,8.71374,1.08735
1008.0,8.70637,598.773,2096.18,2095.75,8.70634,1.07995
1020.0,8.70231,599.433,2114.56,2114.12,8.70009,1.0737
1032.0,8.69593,600.093,2132.91,2132.44,8.69331,1.06692
1044.0,8.68584,600.753,2151.22,2150.72,8.68748,1.06109
1056.0,8.67754,601.413,2169.48,2168.96,8.67901,1.05262
1068.0,8.66942,602.073,2187.71,2187.17,8.67022,1.04383
1080.0,8.66486,602.733,2205.89,2205.33,8.66703,1.04064
1092.0,8.66459,603.393,2224.04,2223.45,8.66501,1.03862
1104.0,8.66244,604.053,2242.15,2241.54,8.66212,1.03573
1116.0,8.65568,604.713,2260.21,2259.58,8.65776,1.03137
1128.0,8.64734,605.373,2278.24,2277.58,8.64755,1.02116
1140.0,8.64478,606.033,2296.23,2295.55,8.64478,1.01839
1152.0,8.63923,606.693,2314.18,2313.47,8.64184,1.01545
1164.0,8.63116,607.353,2332.09,2331.36,8.63428,1.00789
1176.0,8.63085,608.012,2349.96,2349.21,8.63109,1.0047
1188.0,8.62327,608.672,2367.79,2367.02,8.62367,0.997281
1200.0,8.61851,609.332,2385.59,2384.79,8.61851,0.992121
1212.0,8.60855,609.992,2403.34,2402.52,8.60907,0.982681
1224.0,8.60306,610.652,2421.06,2420.22,8.60325,0.976861
1236.0,8.60049,611.312,2438.74,2437.87,8.60049,0.974101
1248.0,8.59867,611.972,2456.38,2455.49,8.5944,0.968011
1260.0,8.58681,612.632,2473.98,2473.07,8.58681,0.960421
1272.0,8.57609,613.292,2491.55,2490.61,8.57834,0.951951
1284.0,8.57097,613.952,2509.07,2508.12,8.56932,0.942931
1296.0,8.56583,614.612,2526.56,2525.59,8.56433,0.937941
1308.0,8.54983,615.272,2544.02,2543.01,8.5522,0.925811
1320.0,8.53995,615.932,2561.43,2560.41,8.54018,0.913791
1332.0,8.5317,616.592,2578.81,2577.76,8.53027,0.903881
1344.0,8.52753,617.252,2596.15,2595.08,8.52483,0.898441
1356.0,8.51827,617.912,2613.45,2612.36,8.51827,0.891881
1368.0,8.50335,618.572,2630.72,2629.6,8.50463,0.878241
1380.0,8.49507,619.232,2647.95,2646.81,8.49507,0.868681
1392.0,8.48844,619.892,2665.14,2663.98,8.48844,0.862051
1404.0,8.47887,620.551,2682.29,2681.12,8.47836,0.851971
1416.0,8.4712,621.211,2699.41,2698.21,8.46999,0.843601
1428.0,8.46353,621.871,2716.5,2715.27,8.46353,0.837141
1440.0,8.45617,622.531,2733.54,2732.3,8.45802,0.831631
1452.0,8.44357,623.191,2750.56,2749.29,8.44575,0.819361
1464.0,8.44393,623.851,2767.53,2766.24,8.44298,0.816591
1476.0,8.43327,624.511,2784.47,2783.16,8.43327,0.806881
1488.0,8.42452,625.171,2801.37,2800.04,8.42846,0.802071
1500.0,8.42145,625.831,2818.24,2816.89,8.42145,0.795061
1512.0,8.41595,626.491,2835.07,2833.7,8.41542,0.789031
1524.0,8.40598,627.151,2851.87,2850.47,8.40598,0.779591
1536.0,8.4004,627.811,2868.63,2867.21,8.40058,0.774191
1548.0,8.39319,628.471,2885.36,2883.92,8.39319,0.766801
1560.0,8.38904,629.131,2902.05,2900.59,8.38818,0.761791
1572.0,8.3831,629.791,2918.7,2917.22,8.3831,0.756711
1584.0,8.37196,630.451,2935.32,2933.82,8.37425,0.747861
1596.0,8.37379,631.111,2951.91,2950.38,8.37424,0.747851
1608.0,8.42575,631.771,2968.46,2966.92,8.42575,0.799361
1620.0,8.36195,632.431,2984.98,2983.41,8.36195,0.735561
1632.0,8.34978,633.091,3001.46,2999.87,8.34978,0.723391
1644.0,8.32256,633.75,3017.91,3016.3,8.32256,0.696171
1656.0,8.29303,634.41,3034.33,3032.69,8.29335,0.666961
1668.0,8.28213,635.07,3050.71,3049.05,8.28213,0.655741
1680.0,8.27113,635.73,3067.05,3065.38,8.27113,0.644741
1692.0,8.2573,636.39,3083.36,3081.67,8.2573,0.630911
1704.0,8.24704,637.05,3099.64,3097.93,8.24704,0.620651
1716.0,8.23938,637.71,3115.89,3114.15,8.24018,0.613791
1728.0,8.2351,638.37,3132.1,3130.34,8.23444,0.608051
1740.0,8.22587,639.03,3148.28,3146.5,8.22587,0.599481
1752.0,8.21343,639.69,3164.42,3162.62,8.21343,0.587041
1764.0,8.19842,640.35,3180.53,3178.71,8.19929,0.572901
1776.0,8.18759,641.01,3196.61,3194.77,8.18759,0.561201
1788.0,8.17518,641.67,3212.65,3210.79,8.17518,0.548791
1800.0,8.16253,642.33,3228.67,3226.78,8.16292,0.536531
1812.0,8.15681,642.99,3244.65,3242.74,8.1561,0.529711
1824.0,8.1454,643.65,3260.59,3258.67,8.1454,0.519011
1836.0,8.13681,644.31,3276.51,3274.56,8.13709,0.510701
1848.0,8.12819,644.97,3292.39,3290.42,8.12819,0.501801
1860.0,8.11845,645.63,3308.23,3306.25,8.11845,0.492061
1872.0,8.11092,646.29,3324.05,3322.05,8.1114,0.485011
1884.0,8.10265,646.949,3339.83,3337.81,8.1046,0.478211
1896.0,8.09574,647.609,3355.59,3353.54,8.09586,0.469471
1908.0,8.09015,648.269,3371.31,3369.24,8.09015,0.463761
1920.0,8.08648,648.929,3386.99,3384.91,8.08559,0.459201
1932.0,8.0779,649.589,3402.65,3400.54,8.07779,0.451401
1944.0,8.06685,650.249,3418.27,3416.15,8.06685,0.440461
1956.0,8.05854,650.909,3433.87,3431.72,8.05854,0.432151
1968.0,8.04759,651.569,3449.43,3447.26,8.04819,0.421801
1980.0,8.04099,652.229,3464.96,3462.77,8.04194,0.415551
1992.0,8.03395,652.889,3480.45,3478.25,8.03395,0.407561
2004.0,8.02612,653.549,3495.92,3493.69,8.02572,0.399331
2016.0,8.01495,654.209,3511.36,3509.11,8.01617,0.389781
2028.0,8.01067,654.869,3526.76,3524.49,8.01067,0.384281
2040.0,8.00908,655.529,3542.13,3539.85,8.00854,0.382151
2047.0,7.99923,655.914,3551.09,3548.79,7.99923,0.372841