File: data/processed/processed_data/2024-09-03/2024-09-03_glycinepowder_n_y_y_solid_1000_0_100.csv
Pixels #,Intensity (a.u.),Wavelength (nm),Raman shift (cm-1),Raman shift (cm-1) adjusted,Filtered Intensity (a.u.),Baselined Filtered Intensity (a.u.)
0.0,0.000695676,543.337,392.223,393.994,0.000340236,0.000338333
13.0,0.000663774,544.052,416.409,418.148,0.000404087,0.000402184
26.0,0.00179463,544.767,440.532,442.24,0.00169111,0.00168921
39.0,0.000450882,545.482,464.591,466.268,0.000906314,0.00090441
52.0,0.000530861,546.197,488.587,490.233,0.000530861,0.000528958
65.0,0.00877561,546.912,512.521,514.136,0.00838366,0.00838176
78.0,0.00952067,547.627,536.392,537.976,0.00952067,0.00951877
91.0,0.00705234,548.342,560.2,561.754,0.00721724,0.00721534
104.0,0.00296299,549.057,583.947,585.47,0.00296299,0.00296109
117.0,0.000860367,549.772,607.632,609.125,0.00161338,0.00161148
130.0,0.00222697,550.487,631.255,632.718,0.00222697,0.00222507
143.0,0.00164125,551.202,654.818,656.25,0.00173478,0.00173288
156.0,0.000334399,551.917,678.319,679.72,0.000993424,0.000991527
169.0,0.00465505,552.632,701.759,703.13,0.00416662,0.00416472
182.0,0.00503186,553.347,725.139,726.48,0.0057546,0.0057527
195.0,0.00996075,554.062,748.458,749.769,0.0113746,0.0113727
208.0,0.0180305,554.777,771.717,772.999,0.0188904,0.0188885
221.0,0.0303832,555.491,794.917,796.168,0.0303832,0.0303813
234.0,0.047236,556.206,818.057,819.278,0.0465455,0.0465436
247.0,0.0570786,556.921,841.137,842.329,0.0570786,0.0570767
260.0,0.043871,557.636,864.158,865.321,0.043871,0.0438691
273.0,0.0653766,558.351,887.12,888.253,0.0653766,0.0653747
286.0,0.00477524,559.066,910.024,911.127,0.00477524,0.00477335
299.0,0.00363561,559.781,932.869,933.943,0.00421392,0.00421203
312.0,0.00463865,560.496,955.656,956.7,0.00215574,0.00215385
325.0,0.00108407,561.211,978.384,979.4,0.00176513,0.00176324
338.0,0.00522475,561.926,1001.06,1002.04,0.00415666,0.00415477
351.0,0.00947996,562.641,1023.67,1024.63,0.00947996,0.00947807
364.0,0.0060802,563.356,1046.22,1047.15,0.0060802,0.00607831
377.0,0.00486229,564.071,1068.72,1069.62,0.00425686,0.00425497
390.0,0.00272244,564.786,1091.16,1092.03,0.00218095,0.00217906
403.0,0.00515077,565.501,1113.55,1114.39,0.00474484,0.00474296
416.0,0.00559269,566.216,1135.88,1136.69,0.00554613,0.00554425
429.0,0.00178301,566.931,1158.15,1158.93,0.00178301,0.00178113
442.0,0.00342117,567.646,1180.37,1181.12,0.00342117,0.00341929
455.0,0.00435001,568.361,1202.53,1203.25,0.00593141,0.00592953
468.0,0.00216477,569.075,1224.63,1225.33,0.00270328,0.0027014
481.0,0.00227533,569.79,1246.68,1247.35,0.00211479,0.00211291
494.0,0.00141935,570.505,1268.67,1269.31,0.0015154,0.00151352
507.0,0.00114029,571.22,1290.61,1291.22,0.00125513,0.00125325
520.0,0.0206657,571.935,1312.5,1313.08,0.0206657,0.0206638
533.0,0.0132353,572.65,1334.32,1334.88,0.0132353,0.0132334
546.0,0.00402726,573.365,1356.1,1356.63,0.00267261,0.00267073
559.0,0.0019843,574.08,1377.82,1378.32,0.00216328,0.0021614
572.0,0.0136861,574.795,1399.49,1399.96,0.0136861,0.0136842
585.0,0.0028109,575.51,1421.1,1421.54,0.0028109,0.00280902
598.0,0.00647885,576.225,1442.66,1443.07,0.00597532,0.00597344
611.0,0.00241942,576.94,1464.16,1464.55,0.00241942,0.00241754
624.0,0.00105272,577.655,1485.62,1485.98,0.00122385,0.00122197
637.0,0.00691555,578.37,1507.01,1507.35,0.00691555,0.00691367
650.0,0.00148528,579.085,1528.36,1528.67,0.00148528,0.0014834
663.0,4.02075e-05,579.8,1549.65,1549.93,0.000764782,0.000762907
676.0,0.00815572,580.515,1570.9,1571.15,0.00815572,0.00815385
689.0,0.0,581.23,1592.09,1592.31,0.0,-1.87346e-06
702.0,0.00410311,581.944,1613.22,1613.42,0.00239825,0.00239638
715.0,0.00328588,582.659,1634.31,1634.48,0.00315439,0.00315252
728.0,0.00410727,583.374,1655.34,1655.48,0.00380196,0.00380009
741.0,0.00297083,584.089,1676.32,1676.44,0.00173565,0.00173378
754.0,0.00118576,584.804,1697.25,1697.34,0.0016388,0.00163693
767.0,0.00166411,585.519,1718.13,1718.2,0.00210016,0.00209829
780.0,0.0,586.234,1738.96,1739,0.000594242,0.000592378
793.0,0.0,586.949,1759.74,1759.75,0.000961479,0.000959616
806.0,0.000931686,587.664,1780.47,1780.45,0.000931686,0.000929824
819.0,0.0,588.379,1801.14,1801.1,0.000289322,0.000287462
832.0,0.00210437,589.094,1821.77,1821.7,0.00210437,0.00210251
845.0,0.00260651,589.809,1842.35,1842.25,0.00260651,0.00260465
858.0,0.00174103,590.524,1862.87,1862.75,0.00144191,0.00144005
871.0,0.00231965,591.239,1883.35,1883.2,0.00164472,0.00164287
884.0,0.00113063,591.954,1903.78,1903.6,0.00163268,0.00163083
897.0,0.00161678,592.669,1924.16,1923.96,0.000817029,0.000815178
910.0,0.00187312,593.384,1944.49,1944.26,0.00187312,0.00187127
923.0,0.00196496,594.099,1964.77,1964.51,0.0019878,0.00198595
936.0,0.000721675,594.813,1985,1984.72,0.000691758,0.000689911
949.0,0.0,595.528,2005.18,2004.88,0.000607679,0.000605834
962.0,0.00182319,596.243,2025.32,2024.98,0.00182319,0.00182135
975.0,0.00199975,596.958,2045.4,2045.05,0.00199975,0.00199791
988.0,0.0,597.673,2065.44,2065.06,0.0,-1.84206e-06
1001.0,0.00172986,598.388,2085.43,2085.02,0.00172986,0.00172802
1014.0,0.0,599.103,2105.38,2104.94,0.0,-1.84024e-06
1027.0,0.000992436,599.818,2125.27,2124.81,0.000992436,0.000990597
1040.0,0.00344974,600.533,2145.12,2144.63,0.00210063,0.00209879
1053.0,0.00197993,601.248,2164.92,2164.41,0.0019001,0.00189826
1066.0,0.0,601.963,2184.67,2184.14,6.86275e-05,6.67899e-05
1079.0,0.00183275,602.678,2204.38,2203.82,0.000471644,0.000469807
1092.0,0.000284504,603.393,2224.04,2223.45,0.00083545,0.000833613
1105.0,0.001407,604.108,2243.65,2243.04,0.001407,0.00140516
1118.0,0.00281515,604.823,2263.22,2262.58,0.0020132,0.00201136
1131.0,0.000739808,605.538,2282.74,2282.08,0.000739808,0.000737973
1144.0,0.00016694,606.253,2302.22,2301.53,0.00016694,0.000165106
1157.0,0.00116234,606.968,2321.65,2320.93,0.00183211,0.00183028
1170.0,0.0,607.682,2341.03,2340.29,0.000565725,0.000563892
1183.0,0.00058407,608.397,2360.37,2359.6,0.00110141,0.00109958
1196.0,0.000347443,609.112,2379.66,2378.87,0.00105182,0.00104999
1209.0,0.000760656,609.827,2398.91,2398.09,0.000332287,0.000330455
1222.0,0.00564644,610.542,2418.11,2417.27,0.00425641,0.00425458
1235.0,0.00110347,611.257,2437.27,2436.4,0.00168449,0.00168266
1248.0,0.00413255,611.972,2456.38,2455.49,0.00164327,0.00164144
1261.0,0.0,612.687,2475.45,2474.53,0.0,-1.82925e-06
1274.0,5.50903e-06,613.402,2494.47,2493.53,0.000596262,0.000594433
1287.0,0.00225851,614.117,2513.45,2512.49,0.00185909,0.00185726
1300.0,0.0,614.832,2532.39,2531.4,0.000282351,0.000280524
1313.0,0.0,615.547,2551.28,2550.27,0.0,-1.82709e-06
1326.0,0.00161943,616.262,2570.12,2569.09,0.00160077,0.00159894
1339.0,0.00344262,616.977,2588.93,2587.87,0.00116315,0.00116132
1352.0,0.00266889,617.692,2607.69,2606.6,0.002689,0.00268717
1365.0,0.000703512,618.407,2626.4,2625.3,0.000703512,0.000701685
1378.0,0.00106508,619.122,2645.08,2643.95,0.00106508,0.00106325
1391.0,0.0,619.837,2663.71,2662.55,0.0,-1.82677e-06
1404.0,0.00102341,620.551,2682.29,2681.12,0.000429236,0.000427409
1417.0,0.000146718,621.266,2700.84,2699.64,0.000146718,0.000144891
1430.0,0.00107621,621.981,2719.34,2718.11,0.00107621,0.00107438
1443.0,0.00194122,622.696,2737.8,2736.55,0.00194122,0.00193939
1456.0,0.00203717,623.411,2756.22,2754.94,0.000858671,0.000856844
1469.0,0.0,624.126,2774.59,2773.29,0.0,-1.82742e-06
1482.0,0.0,624.841,2792.93,2791.6,0.000582643,0.000580816
1495.0,0.000133841,625.556,2811.22,2809.87,0.000133841,0.000132014
1508.0,0.00172557,626.271,2829.47,2828.1,0.000997184,0.000995357
1521.0,0.0,626.986,2847.67,2846.28,0.0,-1.82699e-06
1534.0,0.0,627.701,2865.84,2864.42,0.0,-1.8269e-06
1547.0,0.00137843,628.416,2883.96,2882.53,0.00137843,0.0013766
1560.0,0.00276357,629.131,2902.05,2900.59,0.00259772,0.00259589
1573.0,0.00348889,629.846,2920.09,2918.6,0.0027842,0.00278237
1586.0,0.0,630.561,2938.09,2936.58,0.0,-1.82753e-06
1599.0,0.00277052,631.276,2956.05,2954.52,0.00319508,0.00319325
1612.0,0.0341951,631.991,2973.97,2972.42,0.0341951,0.0341933
1625.0,0.0,632.706,2991.85,2990.27,0.0,-1.82883e-06
1638.0,0.0145758,633.421,3009.69,3008.09,0.0145758,0.014574
1651.0,0.0,634.135,3027.49,3025.87,0.0,-1.83011e-06
1664.0,0.00149794,634.85,3045.25,3043.6,0.000222955,0.000221124
1677.0,0.0,635.565,3062.97,3061.3,0.000607918,0.000606087
1690.0,0.000131367,636.28,3080.65,3078.96,0.0,-1.83133e-06
1703.0,0.0,636.995,3098.29,3096.57,0.0,-1.83137e-06
1716.0,0.000202049,637.71,3115.89,3114.15,0.000202049,0.000200217
1729.0,0.00177959,638.425,3133.45,3131.69,0.00141925,0.00141742
1742.0,0.0,639.14,3150.97,3149.19,0.000237812,0.00023598
1755.0,0.000834414,639.855,3168.45,3166.65,0.000702469,0.000700637
1768.0,0.000273149,640.57,3185.9,3184.07,0.0,-1.8329e-06
1781.0,0.000314371,641.285,3203.3,3201.45,0.000507991,0.000506158
1794.0,0.00150259,642,3220.66,3218.79,0.000852752,0.000850918
1807.0,0.00107927,642.715,3237.99,3236.1,0.000458528,0.000456694
1820.0,0.00165871,643.43,3255.28,3253.36,0.000507868,0.000506033
1833.0,0.00165818,644.145,3272.53,3270.59,0.000920979,0.000919143
1846.0,0.00105373,644.86,3289.74,3287.78,0.00105373,0.00105189
1859.0,0.0,645.575,3306.92,3304.93,0.0,-1.83527e-06
1872.0,0.00231355,646.29,3324.05,3322.05,0.00220011,0.00219828
1885.0,0.0,647.004,3341.15,3339.12,0.000622586,0.000620751
1898.0,0.0,647.719,3358.21,3356.16,0.0,-1.83435e-06
1911.0,0.001103,648.434,3375.23,3373.16,0.000191472,0.000189638
1924.0,0.000346599,649.149,3392.22,3390.12,0.0,-1.83328e-06
1937.0,0.000117129,649.864,3409.16,3407.05,0.000117129,0.000115296
1950.0,0.00151332,650.579,3426.07,3423.94,0.000479354,0.000477521
1963.0,0.0,651.294,3442.95,3440.79,0.000313268,0.000311435
1976.0,0.0,652.009,3459.78,3457.6,0.0,-1.8325e-06
1989.0,0.0,652.724,3476.58,3474.38,0.000162789,0.000160956
2002.0,0.0,653.439,3493.34,3491.12,0.0,-1.83263e-06
2015.0,0.0,654.154,3510.07,3507.83,0.0,-1.83226e-06
2028.0,0.000313574,654.869,3526.76,3524.49,0.000313574,0.000311742
2041.0,0.00393344,655.584,3543.41,3541.12,0.00136221,0.00136038
2047.0,0.000132067,655.914,3551.09,3548.79,0.0,-1.8318e-06