File: data/processed/processed_data/2024-09-03/2024-09-03_glycinepowder_n_n_y_solid_1000_0_1.csv
Pixels #,Intensity (a.u.),Wavelength (nm),Raman shift (cm-1),Raman shift (cm-1) adjusted,Filtered Intensity (a.u.),Baselined Filtered Intensity (a.u.)
0.0,7.5633,543.337,392.223,393.994,7.56109,-0.0659736
12.0,7.56245,543.997,414.551,416.293,7.5624,-0.0646685
24.0,7.56318,544.657,436.825,438.537,7.56498,-0.0621024
36.0,7.56455,545.317,459.044,460.728,7.56338,-0.0637254
48.0,7.56571,545.977,481.21,482.866,7.56522,-0.0619176
60.0,7.58505,546.637,503.323,504.95,7.58505,-0.0421285
72.0,7.61096,547.297,525.382,526.981,7.61096,-0.0162657
84.0,7.63296,547.957,547.388,548.958,7.63369,0.00641488
96.0,7.64163,548.617,569.341,570.883,7.64157,0.0142465
108.0,7.64135,549.277,591.241,592.755,7.64387,0.0165001
120.0,7.64535,549.937,613.089,614.575,7.6439,0.0164862
132.0,7.64517,550.597,634.884,636.342,7.6455,0.0180447
144.0,7.64764,551.257,656.627,658.057,7.6472,0.0197058
156.0,7.65966,551.917,678.319,679.72,7.65942,0.0318898
168.0,7.67304,552.577,699.958,701.332,7.67304,0.0454781
180.0,7.69725,553.237,721.546,722.892,7.69725,0.0696629
192.0,7.73754,553.897,743.082,744.4,7.73754,0.109938
204.0,7.79837,554.557,764.567,765.858,7.79837,0.170766
216.0,7.89775,555.217,786.001,787.264,7.89775,0.270146
228.0,8.03325,555.876,807.384,808.62,8.03325,0.405646
240.0,8.17922,556.536,828.716,829.924,8.17922,0.551616
252.0,8.33645,557.196,849.998,851.179,8.33645,0.708846
264.0,8.45209,557.856,871.23,872.383,8.45209,0.824486
276.0,8.54955,558.516,892.411,893.537,8.54865,0.921046
288.0,8.52947,559.176,913.542,914.641,8.52947,0.901866
300.0,8.54141,559.836,934.624,935.695,8.54282,0.915216
312.0,8.5364,560.496,955.656,956.7,8.53825,0.910646
324.0,8.55021,561.156,976.638,977.655,8.54661,0.919006
336.0,8.56185,561.816,997.571,998.562,8.56242,0.934816
348.0,8.58341,562.476,1018.45,1019.42,8.58341,0.955806
360.0,8.61691,563.136,1039.29,1040.23,8.60905,0.981446
372.0,8.59835,563.796,1060.08,1060.99,8.60052,0.972916
384.0,8.61503,564.456,1080.81,1081.7,8.61503,0.987426
396.0,8.63497,565.116,1101.5,1102.36,8.63497,1.00737
408.0,8.63174,565.776,1122.14,1122.97,8.63154,1.00394
420.0,8.63444,566.436,1142.74,1143.54,8.63549,1.00789
432.0,8.64488,567.096,1163.28,1164.06,8.64488,1.01728
444.0,8.65657,567.756,1183.78,1184.53,8.65657,1.02897
456.0,8.66238,568.416,1204.23,1204.95,8.66238,1.03478
468.0,8.66604,569.075,1224.63,1225.33,8.6643,1.0367
480.0,8.68162,569.735,1244.99,1245.66,8.68,1.0524
492.0,8.68267,570.395,1265.29,1265.94,8.68185,1.05425
504.0,8.69592,571.055,1285.55,1286.17,8.69404,1.06644
516.0,8.70945,571.715,1305.77,1306.36,8.71038,1.08278
528.0,8.7686,572.375,1325.94,1326.5,8.7686,1.141
540.0,8.72094,573.035,1346.06,1346.6,8.70945,1.08185
552.0,8.72149,573.695,1366.13,1366.65,8.71583,1.08823
564.0,8.73753,574.355,1386.16,1386.65,8.7411,1.1135
576.0,8.76521,575.015,1406.14,1406.61,8.76545,1.13785
588.0,8.74762,575.675,1426.08,1426.52,8.74784,1.12024
600.0,8.759,576.335,1445.97,1446.38,8.759,1.1314
612.0,8.75421,576.995,1465.82,1466.2,8.7559,1.1283
624.0,8.75373,577.655,1485.62,1485.98,8.75373,1.12613
636.0,8.7633,578.315,1505.37,1505.71,8.76503,1.13743
648.0,8.76217,578.975,1525.08,1525.39,8.7649,1.1373
660.0,8.78215,579.635,1544.75,1545.03,8.77426,1.14666
672.0,8.79289,580.295,1564.37,1564.63,8.79188,1.16428
684.0,8.78408,580.955,1583.94,1584.18,8.78401,1.15641
696.0,8.7738,581.614,1603.47,1603.68,8.7738,1.1462
708.0,8.77601,582.274,1622.96,1623.15,8.77601,1.14841
720.0,8.77168,582.934,1642.4,1642.56,8.77505,1.14745
732.0,8.78888,583.594,1661.8,1661.94,8.78318,1.15558
744.0,8.78138,584.254,1681.16,1681.27,8.78293,1.15533
756.0,8.7758,584.914,1700.47,1700.55,8.78379,1.15619
768.0,8.77649,585.574,1719.74,1719.8,8.78024,1.15264
780.0,8.77632,586.234,1738.96,1739,8.77852,1.15092
792.0,8.77523,586.894,1758.14,1758.15,8.7723,1.1447
804.0,8.78781,587.554,1777.28,1777.27,8.78849,1.16089
816.0,8.78068,588.214,1796.38,1796.34,8.78068,1.15308
828.0,8.7805,588.874,1815.43,1815.37,8.78206,1.15446
840.0,8.78721,589.534,1834.44,1834.35,8.78427,1.15667
852.0,8.78862,590.194,1853.41,1853.29,8.78996,1.16236
864.0,8.78706,590.854,1872.33,1872.2,8.79394,1.16634
876.0,8.79965,591.514,1891.21,1891.05,8.7913,1.1637
888.0,8.79139,592.174,1910.05,1909.87,8.79182,1.16422
900.0,8.77711,592.834,1928.85,1928.64,8.77827,1.15067
912.0,8.78558,593.494,1947.61,1947.38,8.78039,1.15279
924.0,8.76706,594.154,1966.33,1966.07,8.76727,1.13967
936.0,8.77288,594.813,1985,1984.72,8.76475,1.13715
948.0,8.77557,595.473,2003.63,2003.33,8.76709,1.13949
960.0,8.75755,596.133,2022.22,2021.89,8.75747,1.12987
972.0,8.75088,596.793,2040.77,2040.42,8.7545,1.1269
984.0,8.757,597.453,2059.28,2058.91,8.74623,1.11863
996.0,8.73973,598.113,2077.75,2077.35,8.73341,1.10581
1008.0,8.73417,598.773,2096.18,2095.75,8.7378,1.1102
1020.0,8.72531,599.433,2114.56,2114.12,8.71666,1.08906
1032.0,8.72085,600.093,2132.91,2132.44,8.71429,1.08669
1044.0,8.69801,600.753,2151.22,2150.72,8.70362,1.07602
1056.0,8.70599,601.413,2169.48,2168.96,8.70599,1.07839
1068.0,8.69996,602.073,2187.71,2187.17,8.69813,1.07053
1080.0,8.69963,602.733,2205.89,2205.33,8.69963,1.07203
1092.0,8.68376,603.393,2224.04,2223.45,8.68916,1.06156
1104.0,8.68182,604.053,2242.15,2241.54,8.68336,1.05576
1116.0,8.67817,604.713,2260.21,2259.58,8.68058,1.05298
1128.0,8.66361,605.373,2278.24,2277.58,8.67358,1.04598
1140.0,8.66928,606.033,2296.23,2295.55,8.67076,1.04316
1152.0,8.65455,606.693,2314.18,2313.47,8.65901,1.03141
1164.0,8.65699,607.353,2332.09,2331.36,8.66249,1.03489
1176.0,8.65068,608.012,2349.96,2349.21,8.64443,1.01683
1188.0,8.65364,608.672,2367.79,2367.02,8.64883,1.02123
1200.0,8.6318,609.332,2385.59,2384.79,8.63255,1.00495
1212.0,8.63014,609.992,2403.34,2402.52,8.63558,1.00798
1224.0,8.62887,610.652,2421.06,2420.22,8.62887,1.00127
1236.0,8.62191,611.312,2438.74,2437.87,8.61744,0.989836
1248.0,8.60368,611.972,2456.38,2455.49,8.60687,0.979266
1260.0,8.60331,612.632,2473.98,2473.07,8.6045,0.976896
1272.0,8.59973,613.292,2491.55,2490.61,8.59973,0.972126
1284.0,8.5987,613.952,2509.07,2508.12,8.58964,0.962036
1296.0,8.58381,614.612,2526.56,2525.59,8.5818,0.954196
1308.0,8.57775,615.272,2544.02,2543.01,8.5778,0.950196
1320.0,8.55709,615.932,2561.43,2560.41,8.55874,0.931136
1332.0,8.54807,616.592,2578.81,2577.76,8.54807,0.920466
1344.0,8.55454,617.252,2596.15,2595.08,8.54398,0.916376
1356.0,8.52441,617.912,2613.45,2612.36,8.53074,0.903136
1368.0,8.5245,618.572,2630.72,2629.6,8.52268,0.895076
1380.0,8.51728,619.232,2647.95,2646.81,8.51736,0.889756
1392.0,8.50188,619.892,2665.14,2663.98,8.50188,0.874276
1404.0,8.49035,620.551,2682.29,2681.12,8.49035,0.862746
1416.0,8.4819,621.211,2699.41,2698.21,8.4819,0.854296
1428.0,8.49033,621.871,2716.5,2715.27,8.48701,0.859406
1440.0,8.4705,622.531,2733.54,2732.3,8.47076,0.843156
1452.0,8.46989,623.191,2750.56,2749.29,8.46989,0.842286
1464.0,8.44872,623.851,2767.53,2766.24,8.44944,0.821836
1476.0,8.43641,624.511,2784.47,2783.16,8.44854,0.820936
1488.0,8.45034,625.171,2801.37,2800.04,8.44941,0.821806
1500.0,8.43398,625.831,2818.24,2816.89,8.43476,0.807156
1512.0,8.43464,626.491,2835.07,2833.7,8.42939,0.801786
1524.0,8.42885,627.151,2851.87,2850.47,8.42551,0.797906
1536.0,8.4085,627.811,2868.63,2867.21,8.41784,0.790236
1548.0,8.40995,628.471,2885.36,2883.92,8.40995,0.782346
1560.0,8.40095,629.131,2902.05,2900.59,8.40674,0.779136
1572.0,8.39525,629.791,2918.7,2917.22,8.39525,0.767646
1584.0,8.39394,630.451,2935.32,2933.82,8.39117,0.763566
1596.0,8.38375,631.111,2951.91,2950.38,8.39089,0.763286
1608.0,8.43851,631.771,2968.46,2966.92,8.43459,0.806986
1620.0,8.3738,632.431,2984.98,2983.41,8.3738,0.746196
1632.0,8.36585,633.091,3001.46,2999.87,8.36585,0.738246
1644.0,8.33085,633.75,3017.91,3016.3,8.33085,0.703246
1656.0,8.31044,634.41,3034.33,3032.69,8.31044,0.682836
1668.0,8.28809,635.07,3050.71,3049.05,8.28898,0.661376
1680.0,8.29252,635.73,3067.05,3065.38,8.29252,0.664916
1692.0,8.27028,636.39,3083.36,3081.67,8.26511,0.637506
1704.0,8.25632,637.05,3099.64,3097.93,8.25632,0.628716
1716.0,8.24555,637.71,3115.89,3114.15,8.24555,0.617946
1728.0,8.23403,638.37,3132.1,3130.34,8.23403,0.606426
1740.0,8.23552,639.03,3148.28,3146.5,8.23552,0.607916
1752.0,8.22647,639.69,3164.42,3162.62,8.2246,0.596996
1764.0,8.21573,640.35,3180.53,3178.71,8.21607,0.588466
1776.0,8.19063,641.01,3196.61,3194.77,8.19063,0.563026
1788.0,8.18915,641.67,3212.65,3210.79,8.18915,0.561546
1800.0,8.17743,642.33,3228.67,3226.78,8.17743,0.549826
1812.0,8.17285,642.99,3244.65,3242.74,8.17211,0.544506
1824.0,8.1465,643.65,3260.59,3258.67,8.15073,0.523126
1836.0,8.14046,644.31,3276.51,3274.56,8.14252,0.514916
1848.0,8.13587,644.97,3292.39,3290.42,8.13632,0.508716
1860.0,8.12313,645.63,3308.23,3306.25,8.12351,0.495906
1872.0,8.12372,646.29,3324.05,3322.05,8.12045,0.492846
1884.0,8.11548,646.949,3339.83,3337.81,8.11168,0.484076
1896.0,8.10019,647.609,3355.59,3353.54,8.10134,0.473736
1908.0,8.09451,648.269,3371.31,3369.24,8.09622,0.468616
1920.0,8.08469,648.929,3386.99,3384.91,8.08469,0.457086
1932.0,8.06909,649.589,3402.65,3400.54,8.07509,0.447486
1944.0,8.07051,650.249,3418.27,3416.15,8.07381,0.446206
1956.0,8.07236,650.909,3433.87,3431.72,8.07236,0.444756
1968.0,8.04915,651.569,3449.43,3447.26,8.05568,0.428076
1980.0,8.04315,652.229,3464.96,3462.77,8.04479,0.417186
1992.0,8.03856,652.889,3480.45,3478.25,8.04179,0.414186
2004.0,8.0277,653.549,3495.92,3493.69,8.02902,0.401416
2016.0,8.02374,654.209,3511.36,3509.11,8.02374,0.396136
2028.0,8.02457,654.869,3526.76,3524.49,8.02623,0.398626
2040.0,8.01283,655.529,3542.13,3539.85,8.00813,0.380526
2047.0,8.00348,655.914,3551.09,3548.79,8.00348,0.375876