File: data/processed/processed_data/2024-09-03/2024-09-03_glycinepowder_n_y_y_solid_1000_0_5.csv
Pixels #,Intensity (a.u.),Wavelength (nm),Raman shift (cm-1),Raman shift (cm-1) adjusted,Filtered Intensity (a.u.),Baselined Filtered Intensity (a.u.)
0.0,0.00168904,543.337,392.223,393.994,0.000840488,0.000831579
13.0,0.00218037,544.052,416.409,418.148,0.00168875,0.00167984
26.0,0.00170658,544.767,440.532,442.24,0.00143705,0.00142814
39.0,0.000471977,545.482,464.591,466.268,0.000964179,0.00095527
52.0,0.000236833,546.197,488.587,490.233,0.00150771,0.0014988
65.0,0.0121496,546.912,512.521,514.136,0.0113152,0.0113063
78.0,0.0186173,547.627,536.392,537.976,0.0186173,0.0186084
91.0,0.0157131,548.342,560.2,561.754,0.0154575,0.0154486
104.0,0.00306168,549.057,583.947,585.47,0.0037582,0.00374929
117.0,0.00299676,549.772,607.632,609.125,0.00316503,0.00315612
130.0,0.00267927,550.487,631.255,632.718,0.00267927,0.00267036
143.0,0.00263577,551.202,654.818,656.25,0.00151577,0.00150686
156.0,0.00184663,551.917,678.319,679.72,0.00233182,0.00232291
169.0,0.00566051,552.632,701.759,703.13,0.00510945,0.00510054
182.0,0.00574122,553.347,725.139,726.48,0.00743654,0.00742763
195.0,0.0146031,554.062,748.458,749.769,0.0159066,0.0158977
208.0,0.0271178,554.777,771.717,772.999,0.0271178,0.0271089
221.0,0.0450077,555.491,794.917,796.168,0.0450077,0.0449988
234.0,0.0709239,556.206,818.057,819.278,0.0709239,0.070915
247.0,0.0943268,556.921,841.137,842.329,0.0943268,0.0943179
260.0,0.0806814,557.636,864.158,865.321,0.0818055,0.0817966
273.0,0.103962,558.351,887.12,888.253,0.100392,0.100383
286.0,0.0283984,559.066,910.024,911.127,0.0247871,0.0247782
299.0,0.0102978,559.781,932.869,933.943,0.0102978,0.0102889
312.0,0.00850936,560.496,955.656,956.7,0.0052464,0.0052375
325.0,0.000980392,561.211,978.384,979.4,0.000980392,0.000971492
338.0,0.00686801,561.926,1001.06,1002.04,0.00686801,0.00685911
351.0,0.0187186,562.641,1023.67,1024.63,0.0187186,0.0187097
364.0,0.015563,563.356,1046.22,1047.15,0.0155176,0.0155087
377.0,0.011804,564.071,1068.72,1069.62,0.0102819,0.010273
390.0,0.00392051,564.786,1091.16,1092.03,0.00476622,0.00475732
403.0,0.00331598,565.501,1113.55,1114.39,0.00692324,0.00691434
416.0,0.00456529,566.216,1135.88,1136.69,0.00874777,0.00873887
429.0,0.00249092,566.931,1158.15,1158.93,0.00522334,0.00521444
442.0,0.00811642,567.646,1180.37,1181.12,0.00630975,0.00630085
455.0,0.00678676,568.361,1202.53,1203.25,0.0119584,0.0119495
468.0,0.00958892,569.075,1224.63,1225.33,0.00958892,0.00958003
481.0,0.00628882,569.79,1246.68,1247.35,0.00850402,0.00849513
494.0,0.00334203,570.505,1268.67,1269.31,0.00334203,0.00333314
507.0,0.00776447,571.22,1290.61,1291.22,0.00776447,0.00775558
520.0,0.0377649,571.935,1312.5,1313.08,0.0377649,0.037756
533.0,0.0212695,572.65,1334.32,1334.88,0.0212695,0.0212606
546.0,0.00268882,573.365,1356.1,1356.63,0.000716365,0.000707469
559.0,0.00695884,574.08,1377.82,1378.32,0.00253652,0.00252762
572.0,0.0178338,574.795,1399.49,1399.96,0.0178338,0.0178249
585.0,0.00494523,575.51,1421.1,1421.54,0.00494523,0.00493633
598.0,0.0092603,576.225,1442.66,1443.07,0.00987953,0.00987063
611.0,0.00144436,576.94,1464.16,1464.55,0.000875164,0.000866268
624.0,0.00535701,577.655,1485.62,1485.98,0.00489733,0.00488843
637.0,0.012858,578.37,1507.01,1507.35,0.00975645,0.00974755
650.0,6.18478e-05,579.085,1528.36,1528.67,0.00162021,0.00161131
663.0,0.000867193,579.8,1549.65,1549.93,0.00184879,0.00183989
676.0,0.0129148,580.515,1570.9,1571.15,0.00867997,0.00867107
689.0,0.0,581.23,1592.09,1592.31,0.00177323,0.00176433
702.0,0.00170907,581.944,1613.22,1613.42,0.00563661,0.00562771
715.0,0.0138064,582.659,1634.31,1634.48,0.0116806,0.0116717
728.0,0.00811185,583.374,1655.34,1655.48,0.00811185,0.00810295
741.0,0.00874843,584.089,1676.32,1676.44,0.00479707,0.00478817
754.0,0.0,584.804,1697.25,1697.34,0.00148779,0.00147889
767.0,0.0067441,585.519,1718.13,1718.2,0.00604421,0.00603531
780.0,0.00546999,586.234,1738.96,1739,0.00546999,0.00546109
793.0,0.00252029,586.949,1759.74,1759.75,0.00252029,0.0025114
806.0,0.000906235,587.664,1780.47,1780.45,0.00244354,0.00243465
819.0,0.0107478,588.379,1801.14,1801.1,0.00721173,0.00720284
832.0,0.000910307,589.094,1821.77,1821.7,0.00386565,0.00385676
845.0,0.0144242,589.809,1842.35,1842.25,0.012972,0.0129631
858.0,0.0139348,590.524,1862.87,1862.75,0.0071373,0.00712842
871.0,0.0130888,591.239,1883.35,1883.2,0.0120921,0.0120832
884.0,0.0136139,591.954,1903.78,1903.6,0.0133837,0.0133748
897.0,0.00719543,592.669,1924.16,1923.96,0.00719543,0.00718657
910.0,0.0,593.384,1944.49,1944.26,0.0,-8.85965e-06
923.0,0.00067662,594.099,1964.77,1964.51,0.00110515,0.00109629
936.0,0.00944838,594.813,1985,1984.72,0.00706868,0.00705983
949.0,0.0,595.528,2005.18,2004.88,0.00340152,0.00339267
962.0,0.00516732,596.243,2025.32,2024.98,0.00528065,0.00527181
975.0,0.00421439,596.958,2045.4,2045.05,0.00557476,0.00556592
988.0,0.00846719,597.673,2065.44,2065.06,0.00627932,0.00627048
1001.0,0.00815679,598.388,2085.43,2085.02,0.00387788,0.00386905
1014.0,0.00416214,599.103,2105.38,2104.94,0.00563319,0.00562436
1027.0,0.0,599.818,2125.27,2124.81,0.00134254,0.00133371
1040.0,0.00646134,600.533,2145.12,2144.63,0.00646134,0.00645251
1053.0,0.00196105,601.248,2164.92,2164.41,0.00196105,0.00195223
1066.0,0.00285272,601.963,2184.67,2184.14,0.00285272,0.0028439
1079.0,0.00243398,602.678,2204.38,2203.82,0.00281182,0.002803
1092.0,0.00568357,603.393,2224.04,2223.45,0.00568357,0.00567475
1105.0,0.000867857,604.108,2243.65,2243.04,0.00276379,0.00275497
1118.0,0.00588035,604.823,2263.22,2262.58,0.00472449,0.00471567
1131.0,0.0,605.538,2282.74,2282.08,0.00143292,0.00142411
1144.0,0.0,606.253,2302.22,2301.53,0.00290277,0.00289396
1157.0,0.003587,606.968,2321.65,2320.93,0.00431746,0.00430865
1170.0,0.0054946,607.682,2341.03,2340.29,0.0054946,0.00548579
1183.0,0.0,608.397,2360.37,2359.6,0.0020152,0.00200639
1196.0,0.00245329,609.112,2379.66,2378.87,0.00247826,0.00246945
1209.0,0.000588538,609.827,2398.91,2398.09,0.0039898,0.00398099
1222.0,0.0,610.542,2418.11,2417.27,3.09154e-05,2.21005e-05
1235.0,0.00617087,611.257,2437.27,2436.4,0.00467014,0.00466132
1248.0,0.00798354,611.972,2456.38,2455.49,0.0069067,0.00689788
1261.0,0.000615916,612.687,2475.45,2474.53,0.00142134,0.00141252
1274.0,0.00228865,613.402,2494.47,2493.53,0.00228865,0.00227983
1287.0,0.00494775,614.117,2513.45,2512.49,0.00662343,0.00661461
1300.0,0.00243903,614.832,2532.39,2531.4,0.0,-8.82207e-06
1313.0,0.0040319,615.547,2551.28,2550.27,0.00175329,0.00174447
1326.0,0.00463336,616.262,2570.12,2569.09,0.00463336,0.00462453
1339.0,0.00122739,616.977,2588.93,2587.87,0.00227667,0.00226784
1352.0,0.00142603,617.692,2607.69,2606.6,0.00502524,0.00501641
1365.0,0.0012932,618.407,2626.4,2625.3,0.000890547,0.00088171
1378.0,0.0,619.122,2645.08,2643.95,0.00066011,0.000651269
1391.0,0.00201138,619.837,2663.71,2662.55,0.00201138,0.00200253
1404.0,0.00259976,620.551,2682.29,2681.12,0.00194251,0.00193366
1417.0,0.00636724,621.266,2700.84,2699.64,0.00502028,0.00501143
1430.0,0.00287325,621.981,2719.34,2718.11,0.00287325,0.00286439
1443.0,0.00314888,622.696,2737.8,2736.55,0.00593869,0.00592983
1456.0,0.00626729,623.411,2756.22,2754.94,0.00376515,0.00375628
1469.0,0.0,624.126,2774.59,2773.29,0.00044481,0.00043594
1482.0,0.00208325,624.841,2792.93,2791.6,0.00341491,0.00340604
1495.0,0.00159846,625.556,2811.22,2809.87,0.00182154,0.00181266
1508.0,0.00193886,626.271,2829.47,2828.1,0.00392234,0.00391346
1521.0,0.0,626.986,2847.67,2846.28,0.0019053,0.00189642
1534.0,0.00745079,627.701,2865.84,2864.42,0.00745079,0.0074419
1547.0,3.31278e-05,628.416,2883.96,2882.53,0.00312768,0.00311879
1560.0,0.00374891,629.131,2902.05,2900.59,0.00374891,0.00374002
1573.0,0.00574495,629.846,2920.09,2918.6,0.00540121,0.00539232
1586.0,0.0,630.561,2938.09,2936.58,0.00162735,0.00161846
1599.0,0.00524472,631.276,2956.05,2954.52,0.00840249,0.00839361
1612.0,0.0449653,631.991,2973.97,2972.42,0.0449653,0.0449564
1625.0,0.00100137,632.706,2991.85,2990.27,0.000205997,0.000197117
1638.0,0.0161757,633.421,3009.69,3008.09,0.0161757,0.0161668
1651.0,0.00120044,634.135,3027.49,3025.87,0.000250249,0.000241373
1664.0,0.00127291,634.85,3045.25,3043.6,0.00127291,0.00126404
1677.0,0.0,635.565,3062.97,3061.3,0.000460655,0.000451786
1690.0,0.0,636.28,3080.65,3078.96,0.00245682,0.00244796
1703.0,0.00167127,636.995,3098.29,3096.57,0.00167127,0.00166241
1716.0,0.000818151,637.71,3115.89,3114.15,0.000818151,0.000809293
1729.0,0.00568399,638.425,3133.45,3131.69,0.004619,0.00461015
1742.0,0.0,639.14,3150.97,3149.19,0.000877868,0.000869018
1755.0,0.0,639.855,3168.45,3166.65,0.00186223,0.00185338
1768.0,0.00525383,640.57,3185.9,3184.07,0.0019532,0.00194436
1781.0,0.0035911,641.285,3203.3,3201.45,0.00171701,0.00170817
1794.0,0.000774395,642,3220.66,3218.79,0.000175004,0.000166168
1807.0,0.00455961,642.715,3237.99,3236.1,0.00207202,0.00206319
1820.0,0.00398046,643.43,3255.28,3253.36,0.00398046,0.00397163
1833.0,1.90738e-06,644.145,3272.53,3270.59,0.000253681,0.000244853
1846.0,0.00221353,644.86,3289.74,3287.78,0.00315006,0.00314123
1859.0,0.000600178,645.575,3306.92,3304.93,0.000600178,0.000591356
1872.0,0.00795702,646.29,3324.05,3322.05,0.0075641,0.00755528
1885.0,0.0,647.004,3341.15,3339.12,0.00123511,0.00122629
1898.0,0.00152372,647.719,3358.21,3356.16,0.00163806,0.00162924
1911.0,0.0023328,648.434,3375.23,3373.16,0.00209079,0.00208198
1924.0,0.00191179,649.149,3392.22,3390.12,0.00191179,0.00190298
1937.0,0.0,649.864,3409.16,3407.05,0.000353799,0.000344988
1950.0,0.00246194,650.579,3426.07,3423.94,0.00107698,0.00106817
1963.0,0.00122916,651.294,3442.95,3440.79,0.000694907,0.000686098
1976.0,0.00331317,652.009,3459.78,3457.6,0.0,-8.80643e-06
1989.0,0.00513784,652.724,3476.58,3474.38,0.00674489,0.00673609
2002.0,0.0,653.439,3493.34,3491.12,0.0,-8.80286e-06
2015.0,0.0,654.154,3510.07,3507.83,0.000408179,0.000399377
2028.0,0.0,654.869,3526.76,3524.49,0.0,-8.80131e-06
2041.0,0.00559319,655.584,3543.41,3541.12,0.00559319,0.00558439
2047.0,0.0,655.914,3551.09,3548.79,0.0,-8.80096e-06