File: data/processed/processed_data/2024-09-03/2024-09-03_glycinepowder_n_y_y_solid_10000_0_5.csv
Pixels #,Intensity (a.u.),Wavelength (nm),Raman shift (cm-1),Raman shift (cm-1) adjusted,Filtered Intensity (a.u.),Baselined Filtered Intensity (a.u.)
0.0,0.000206213,543.337,392.223,393.994,0.0,-1.08859e-07
13.0,0.000135414,544.052,416.409,418.148,0.000135414,0.000135305
26.0,0.000901776,544.767,440.532,442.24,0.000857037,0.000856928
39.0,0.000767284,545.482,464.591,466.268,0.000405154,0.000405045
52.0,0.000741697,546.197,488.587,490.233,0.000741697,0.000741588
65.0,0.00702516,546.912,512.521,514.136,0.00669693,0.00669682
78.0,0.00623432,547.627,536.392,537.976,0.00623432,0.00623421
91.0,0.00281399,548.342,560.2,561.754,0.00281399,0.00281388
104.0,0.000587276,549.057,583.947,585.47,0.000587276,0.000587167
117.0,0.000304184,549.772,607.632,609.125,0.000304184,0.000304075
130.0,0.00088266,550.487,631.255,632.718,0.00088266,0.000882551
143.0,0.00133432,551.202,654.818,656.25,0.00131543,0.00131532
156.0,0.00155936,551.917,678.319,679.72,0.00164027,0.00164016
169.0,0.00377878,552.632,701.759,703.13,0.00361655,0.00361644
182.0,0.00528545,553.347,725.139,726.48,0.00557493,0.00557482
195.0,0.00957972,554.062,748.458,749.769,0.00957972,0.00957961
208.0,0.0149923,554.777,771.717,772.999,0.0153004,0.0153003
221.0,0.0227087,555.491,794.917,796.168,0.0227087,0.0227086
234.0,0.0325122,556.206,818.057,819.278,0.0324275,0.0324274
247.0,0.0350163,556.921,841.137,842.329,0.0348628,0.0348627
260.0,0.0255681,557.636,864.158,865.321,0.0255681,0.025568
273.0,0.0372277,558.351,887.12,888.253,0.0354602,0.0354601
286.0,0.0002187,559.066,910.024,911.127,0.0002187,0.000218591
299.0,0.000744699,559.781,932.869,933.943,0.00154925,0.00154914
312.0,0.00124575,560.496,955.656,956.7,0.000434643,0.000434534
325.0,0.000437652,561.211,978.384,979.4,0.0020863,0.00208619
338.0,0.00298498,561.926,1001.06,1002.04,0.00266678,0.00266667
351.0,0.00762247,562.641,1023.67,1024.63,0.00762247,0.00762236
364.0,0.00147823,563.356,1046.22,1047.15,0.00147823,0.00147812
377.0,0.00234471,564.071,1068.72,1069.62,0.00226332,0.00226321
390.0,0.000251534,564.786,1091.16,1092.03,0.00128546,0.00128535
403.0,0.00170321,565.501,1113.55,1114.39,0.00146965,0.00146954
416.0,0.00298668,566.216,1135.88,1136.69,0.00360698,0.00360687
429.0,0.000383157,566.931,1158.15,1158.93,0.0012118,0.00121169
442.0,0.00258515,567.646,1180.37,1181.12,0.00258515,0.00258504
455.0,0.00213955,568.361,1202.53,1203.25,0.00220614,0.00220603
468.0,0.00138369,569.075,1224.63,1225.33,0.00199675,0.00199664
481.0,0.0,569.79,1246.68,1247.35,0.00130275,0.00130264
494.0,0.00216523,570.505,1268.67,1269.31,0.00202909,0.00202898
507.0,0.000438664,571.22,1290.61,1291.22,0.00141954,0.00141943
520.0,0.01444,571.935,1312.5,1313.08,0.01444,0.0144399
533.0,0.0,572.65,1334.32,1334.88,0.0,-1.09692e-07
546.0,0.0,573.365,1356.1,1356.63,0.00046994,0.00046983
559.0,0.00341456,574.08,1377.82,1378.32,0.00350885,0.00350874
572.0,0.00823179,574.795,1399.49,1399.96,0.00823179,0.00823168
585.0,0.0,575.51,1421.1,1421.54,0.0,-1.09863e-07
598.0,0.000946246,576.225,1442.66,1443.07,0.0025182,0.00251809
611.0,0.0,576.94,1464.16,1464.55,0.0,-1.09963e-07
624.0,0.000436408,577.655,1485.62,1485.98,0.000436408,0.000436298
637.0,0.00399664,578.37,1507.01,1507.35,0.00367898,0.00367887
650.0,0.00109762,579.085,1528.36,1528.67,0.00109762,0.00109751
663.0,0.0019663,579.8,1549.65,1549.93,0.00180632,0.00180621
676.0,0.00188056,580.515,1570.9,1571.15,0.00188056,0.00188045
689.0,0.0,581.23,1592.09,1592.31,0.0,-1.10226e-07
702.0,0.000908099,581.944,1613.22,1613.42,0.000376534,0.000376424
715.0,0.00152977,582.659,1634.31,1634.48,0.00152977,0.00152966
728.0,0.00118033,583.374,1655.34,1655.48,0.00118033,0.00118022
741.0,2.89943e-06,584.089,1676.32,1676.44,0.00031055,0.00031044
754.0,0.000659994,584.804,1697.25,1697.34,0.000659994,0.000659884
767.0,0.00111554,585.519,1718.13,1718.2,0.00111554,0.00111543
780.0,0.0,586.234,1738.96,1739,0.000344549,0.000344439
793.0,0.000147295,586.949,1759.74,1759.75,0.00184263,0.00184252
806.0,0.00151677,587.664,1780.47,1780.45,0.00077009,0.00076998
819.0,4.73729e-05,588.379,1801.14,1801.1,0.000266575,0.000266465
832.0,0.000667447,589.094,1821.77,1821.7,0.000667447,0.000667337
845.0,0.00200425,589.809,1842.35,1842.25,0.00143768,0.00143757
858.0,0.000586173,590.524,1862.87,1862.75,0.000807454,0.000807345
871.0,0.0023284,591.239,1883.35,1883.2,0.0023284,0.00232829
884.0,0.00013244,591.954,1903.78,1903.6,0.00052669,0.000526581
897.0,0.00086094,592.669,1924.16,1923.96,0.00086094,0.000860831
910.0,0.000102998,593.384,1944.49,1944.26,0.000102998,0.000102889
923.0,0.0,594.099,1964.77,1964.51,0.000289174,0.000289066
936.0,5.64584e-05,594.813,1985,1984.72,5.64584e-05,5.63503e-05
949.0,1.27906e-05,595.528,2005.18,2004.88,1.27906e-05,1.26828e-05
962.0,0.00107176,596.243,2025.32,2024.98,0.00107176,0.00107165
975.0,0.0,596.958,2045.4,2045.05,0.000165871,0.000165764
988.0,0.0021138,597.673,2065.44,2065.06,0.00191492,0.00191481
1001.0,0.00180612,598.388,2085.43,2085.02,0.000866871,0.000866764
1014.0,0.0014351,599.103,2105.38,2104.94,0.00034819,0.000348083
1027.0,0.0,599.818,2125.27,2124.81,0.000795919,0.000795812
1040.0,0.00272657,600.533,2145.12,2144.63,0.00162729,0.00162718
1053.0,0.00112027,601.248,2164.92,2164.41,0.000560501,0.000560395
1066.0,0.000196078,601.963,2184.67,2184.14,0.000196078,0.000195972
1079.0,0.0,602.678,2204.38,2203.82,0.0,-1.05783e-07
1092.0,0.000794176,603.393,2224.04,2223.45,0.000794176,0.00079407
1105.0,0.0,604.108,2243.65,2243.04,0.0,-1.05442e-07
1118.0,0.00244346,604.823,2263.22,2262.58,0.000643684,0.000643579
1131.0,5.38643e-05,605.538,2282.74,2282.08,5.38643e-05,5.37592e-05
1144.0,0.000728049,606.253,2302.22,2301.53,0.000217827,0.000217722
1157.0,0.0,606.968,2321.65,2320.93,0.0,-1.04827e-07
1170.0,0.0016459,607.682,2341.03,2340.29,0.000628971,0.000628866
1183.0,0.000377439,608.397,2360.37,2359.6,0.000377439,0.000377334
1196.0,0.00202718,609.112,2379.66,2378.87,0.00186663,0.00186653
1209.0,0.000568724,609.827,2398.91,2398.09,0.000568724,0.00056862
1222.0,0.00304127,610.542,2418.11,2417.27,0.00261015,0.00261005
1235.0,0.0,611.257,2437.27,2436.4,0.000754162,0.000754058
1248.0,0.0019568,611.972,2456.38,2455.49,0.00176865,0.00176855
1261.0,0.0,612.687,2475.45,2474.53,0.0,-1.03359e-07
1274.0,0.00021294,613.402,2494.47,2493.53,0.0,-1.03189e-07
1287.0,0.00256786,614.117,2513.45,2512.49,0.00163094,0.00163084
1300.0,0.0,614.832,2532.39,2531.4,0.0,-1.02876e-07
1313.0,0.000551802,615.547,2551.28,2550.27,0.000551802,0.000551699
1326.0,0.0,616.262,2570.12,2569.09,0.0,-1.02597e-07
1339.0,0.00185119,616.977,2588.93,2587.87,0.0,-1.02471e-07
1352.0,0.000800427,617.692,2607.69,2606.6,0.000676842,0.00067674
1365.0,0.0,618.407,2626.4,2625.3,0.000106426,0.000106324
1378.0,0.00157259,619.122,2645.08,2643.95,0.00157259,0.00157249
1391.0,0.00152557,619.837,2663.71,2662.55,0.000903974,0.000903872
1404.0,0.000256783,620.551,2682.29,2681.12,0.000174684,0.000174582
1417.0,0.000235341,621.266,2700.84,2699.64,0.000235341,0.000235239
1430.0,0.0,621.981,2719.34,2718.11,0.0,-1.01776e-07
1443.0,0.0015007,622.696,2737.8,2736.55,0.00107967,0.00107957
1456.0,0.000526258,623.411,2756.22,2754.94,0.000705132,0.00070503
1469.0,0.0,624.126,2774.59,2773.29,0.0,-1.0157e-07
1482.0,0.000692331,624.841,2792.93,2791.6,0.000692331,0.000692229
1495.0,0.0,625.556,2811.22,2809.87,0.000174821,0.00017472
1508.0,0.000623342,626.271,2829.47,2828.1,0.000652441,0.00065234
1521.0,0.00111672,626.986,2847.67,2846.28,0.000665883,0.000665782
1534.0,0.000108034,627.701,2865.84,2864.42,0.000108034,0.000107933
1547.0,0.000542852,628.416,2883.96,2882.53,0.000542852,0.000542751
1560.0,0.00158215,629.131,2902.05,2900.59,0.00158215,0.00158205
1573.0,0.00106872,629.846,2920.09,2918.6,0.00106872,0.00106862
1586.0,0.0,630.561,2938.09,2936.58,0.000294499,0.000294398
1599.0,0.00477584,631.276,2956.05,2954.52,0.00373137,0.00373127
1612.0,0.0123577,631.991,2973.97,2972.42,0.0123577,0.0123576
1625.0,0.0,632.706,2991.85,2990.27,0.0,-9.99122e-08
1638.0,0.00403468,633.421,3009.69,3008.09,0.00403468,0.00403458
1651.0,0.0,634.135,3027.49,3025.87,0.0,-9.93599e-08
1664.0,0.0,634.85,3045.25,3043.6,0.0,-9.91011e-08
1677.0,0.0,635.565,3062.97,3061.3,0.0,-9.88556e-08
1690.0,0.000710547,636.28,3080.65,3078.96,0.0,-9.86235e-08
1703.0,0.0,636.995,3098.29,3096.57,0.0,-9.84021e-08
1716.0,0.0,637.71,3115.89,3114.15,0.0,-9.81893e-08
1729.0,0.000511266,638.425,3133.45,3131.69,0.0,-9.79846e-08
1742.0,0.0,639.14,3150.97,3149.19,0.0,-9.7784e-08
1755.0,0.0,639.855,3168.45,3166.65,0.0,-9.75905e-08
1768.0,0.0,640.57,3185.9,3184.07,0.0,-9.74099e-08
1781.0,0.000443589,641.285,3203.3,3201.45,0.000443589,0.000443492
1794.0,0.00251172,642,3220.66,3218.79,0.000474052,0.000473955
1807.0,0.000319352,642.715,3237.99,3236.1,0.0,-9.694e-08
1820.0,0.0,643.43,3255.28,3253.36,8.22461e-05,8.21493e-05
1833.0,0.000983064,644.145,3272.53,3270.59,1.51319e-05,1.50352e-05
1846.0,0.00117,644.86,3289.74,3287.78,0.00117,0.0011699
1859.0,0.000801862,645.575,3306.92,3304.93,0.000568993,0.000568897
1872.0,0.00138435,646.29,3324.05,3322.05,0.00134844,0.00134834
1885.0,0.0,647.004,3341.15,3339.12,0.0,-9.62405e-08
1898.0,0.0,647.719,3358.21,3356.16,4.61988e-05,4.61027e-05
1911.0,7.67071e-05,648.434,3375.23,3373.16,3.39895e-05,3.38934e-05
1924.0,2.54826e-05,649.149,3392.22,3390.12,2.54826e-05,2.53866e-05
1937.0,0.0,649.864,3409.16,3407.05,0.0,-9.59067e-08
1950.0,0.0,650.579,3426.07,3423.94,0.0,-9.58418e-08
1963.0,0.0,651.294,3442.95,3440.79,0.0,-9.57876e-08
1976.0,0.0,652.009,3459.78,3457.6,0.000286243,0.000286147
1989.0,0.0,652.724,3476.58,3474.38,0.000242785,0.000242689
2002.0,0.0,653.439,3493.34,3491.12,0.0,-9.56721e-08
2015.0,0.0,654.154,3510.07,3507.83,0.0,-9.56508e-08
2028.0,0.0,654.869,3526.76,3524.49,0.0,-9.56374e-08
2041.0,0.0021502,655.584,3543.41,3541.12,0.000847524,0.000847428
2047.0,0.0,655.914,3551.09,3548.79,0.0,-9.56282e-08