File: data/processed/processed_data/2024-09-03/2024-09-03_calcitecrystal_n_n_y_solid_5011_0_5.csv
Pixels #,Intensity (a.u.),Wavelength (nm),Raman shift (cm-1),Raman shift (cm-1) adjusted,Filtered Intensity (a.u.),Baselined Filtered Intensity (a.u.)
0.0,1.61435,543.337,392.223,393.994,1.61435,-0.0150226
12.0,1.61549,543.997,414.551,416.293,1.61549,-0.0138837
24.0,1.61441,544.657,436.825,438.537,1.61441,-0.0149667
36.0,1.61747,545.317,459.044,460.728,1.61747,-0.0119117
48.0,1.61902,545.977,481.21,482.866,1.61809,-0.0112985
60.0,1.61604,546.637,503.323,504.95,1.61611,-0.0132871
72.0,1.61747,547.297,525.382,526.981,1.61738,-0.0120275
84.0,1.61697,547.957,547.388,548.958,1.61733,-0.0120897
96.0,1.61646,548.617,569.341,570.883,1.61638,-0.0130536
108.0,1.61459,549.277,591.241,592.755,1.61507,-0.0143793
120.0,1.61588,549.937,613.089,614.575,1.6162,-0.0132669
132.0,1.61439,550.597,634.884,636.342,1.61499,-0.0144964
144.0,1.61634,551.257,656.627,658.057,1.61622,-0.013288
156.0,1.61668,551.917,678.319,679.72,1.61598,-0.0135515
168.0,1.61775,552.577,699.958,701.332,1.61775,-0.0118069
180.0,1.61723,553.237,721.546,722.892,1.61687,-0.0127141
192.0,1.61836,553.897,743.082,744.4,1.61798,-0.011633
204.0,1.61984,554.557,764.567,765.858,1.62002,-0.00962364
216.0,1.62509,555.217,786.001,787.264,1.62509,-0.00458562
228.0,1.62856,555.876,807.384,808.62,1.62856,-0.0011484
240.0,1.63245,556.536,828.716,829.924,1.6328,0.00305866
252.0,1.63956,557.196,849.998,851.179,1.63956,0.00978629
264.0,1.6436,557.856,871.23,872.383,1.6436,0.0137953
276.0,1.64448,558.516,892.411,893.537,1.6449,0.0150663
288.0,1.647,559.176,913.542,914.641,1.64678,0.0169195
300.0,1.64921,559.836,934.624,935.695,1.64921,0.0193253
312.0,1.65092,560.496,955.656,956.7,1.64995,0.0200439
324.0,1.65075,561.156,976.638,977.655,1.65087,0.0209452
336.0,1.65115,561.816,997.571,998.562,1.65115,0.0212096
348.0,1.65393,562.476,1018.45,1019.42,1.65393,0.023977
360.0,1.65691,563.136,1039.29,1040.23,1.65691,0.0269479
372.0,1.66254,563.796,1060.08,1060.99,1.66254,0.0325726
384.0,1.94282,564.456,1080.81,1081.7,1.94282,0.312849
396.0,1.66765,565.116,1101.5,1102.36,1.66765,0.0376747
408.0,1.66061,565.776,1122.14,1122.97,1.66061,0.0306307
420.0,1.66237,566.436,1142.74,1143.54,1.66196,0.0319783
432.0,1.66328,567.096,1163.28,1164.06,1.6632,0.0332177
444.0,1.66262,567.756,1183.78,1184.53,1.66275,0.0327675
456.0,1.66601,568.416,1204.23,1204.95,1.66626,0.0362775
468.0,1.6679,569.075,1224.63,1225.33,1.66785,0.0378675
480.0,1.66787,569.735,1244.99,1245.66,1.66825,0.0382675
492.0,1.66928,570.395,1265.29,1265.94,1.66928,0.0392975
504.0,1.67096,571.055,1285.55,1286.17,1.67092,0.0409375
516.0,1.67383,571.715,1305.77,1306.36,1.67383,0.0438475
528.0,1.67708,572.375,1325.94,1326.5,1.67615,0.0461675
540.0,1.67946,573.035,1346.06,1346.6,1.67934,0.0493575
552.0,1.68246,573.695,1366.13,1366.65,1.68161,0.0516275
564.0,1.68404,574.355,1386.16,1386.65,1.68404,0.0540575
576.0,1.68652,575.015,1406.14,1406.61,1.68652,0.0565375
588.0,1.69027,575.675,1426.08,1426.52,1.69036,0.0603775
600.0,1.69306,576.335,1445.97,1446.38,1.69303,0.0630475
612.0,1.69345,576.995,1465.82,1466.2,1.69484,0.0648575
624.0,1.69729,577.655,1485.62,1485.98,1.6975,0.0675175
636.0,1.7,578.315,1505.37,1505.71,1.70061,0.0706275
648.0,1.70224,578.975,1525.08,1525.39,1.70265,0.0726675
660.0,1.70751,579.635,1544.75,1545.03,1.70747,0.0774875
672.0,1.71095,580.295,1564.37,1564.63,1.71014,0.0801575
684.0,1.71099,580.955,1583.94,1584.18,1.71163,0.0816475
696.0,1.71503,581.614,1603.47,1603.68,1.71503,0.0850475
708.0,1.71905,582.274,1622.96,1623.15,1.71905,0.0890675
720.0,1.71741,582.934,1642.4,1642.56,1.71791,0.0879275
732.0,1.72375,583.594,1661.8,1661.94,1.72283,0.0928475
744.0,1.7251,584.254,1681.16,1681.27,1.72509,0.0951075
756.0,1.72926,584.914,1700.47,1700.55,1.72925,0.0992675
768.0,1.732,585.574,1719.74,1719.8,1.732,0.102018
780.0,1.73634,586.234,1738.96,1739,1.73644,0.106458
792.0,1.73998,586.894,1758.14,1758.15,1.73998,0.109998
804.0,1.73813,587.554,1777.28,1777.27,1.73789,0.107908
816.0,1.73983,588.214,1796.38,1796.34,1.73983,0.109848
828.0,1.74318,588.874,1815.43,1815.37,1.74294,0.112958
840.0,1.74383,589.534,1834.44,1834.35,1.74441,0.114428
852.0,1.74822,590.194,1853.41,1853.29,1.748,0.118018
864.0,1.75192,590.854,1872.33,1872.2,1.752,0.122018
876.0,1.75416,591.514,1891.21,1891.05,1.75406,0.124078
888.0,1.75603,592.174,1910.05,1909.87,1.75603,0.126048
900.0,1.75799,592.834,1928.85,1928.64,1.75736,0.127378
912.0,1.75825,593.494,1947.61,1947.38,1.75825,0.128268
924.0,1.76118,594.154,1966.33,1966.07,1.761,0.131018
936.0,1.76248,594.813,1985,1984.72,1.76248,0.132498
948.0,1.76358,595.473,2003.63,2003.33,1.76389,0.133908
960.0,1.7658,596.133,2022.22,2021.89,1.7658,0.135818
972.0,1.76913,596.793,2040.77,2040.42,1.76913,0.139148
984.0,1.76936,597.453,2059.28,2058.91,1.76936,0.139378
996.0,1.77269,598.113,2077.75,2077.35,1.77138,0.141398
1008.0,1.77133,598.773,2096.18,2095.75,1.77133,0.141348
1020.0,1.77476,599.433,2114.56,2114.12,1.77454,0.144558
1032.0,1.77568,600.093,2132.91,2132.44,1.77541,0.145428
1044.0,1.77724,600.753,2151.22,2150.72,1.77716,0.147178
1056.0,1.77691,601.413,2169.48,2168.96,1.77705,0.147068
1068.0,1.77974,602.073,2187.71,2187.17,1.77876,0.148778
1080.0,1.7797,602.733,2205.89,2205.33,1.77926,0.149278
1092.0,1.78172,603.393,2224.04,2223.45,1.78172,0.151738
1104.0,1.78394,604.053,2242.15,2241.54,1.78394,0.153958
1116.0,1.78516,604.713,2260.21,2259.58,1.78541,0.155428
1128.0,1.78487,605.373,2278.24,2277.58,1.78517,0.155188
1140.0,1.78605,606.033,2296.23,2295.55,1.78691,0.156928
1152.0,1.78608,606.693,2314.18,2313.47,1.78608,0.156098
1164.0,1.78765,607.353,2332.09,2331.36,1.78737,0.157388
1176.0,1.7885,608.012,2349.96,2349.21,1.78886,0.158878
1188.0,1.78845,608.672,2367.79,2367.02,1.78837,0.158388
1200.0,1.78883,609.332,2385.59,2384.79,1.78883,0.158848
1212.0,1.78773,609.992,2403.34,2402.52,1.78829,0.158308
1224.0,1.78854,610.652,2421.06,2420.22,1.78865,0.158668
1236.0,1.7878,611.312,2438.74,2437.87,1.78784,0.157858
1248.0,1.78944,611.972,2456.38,2455.49,1.78844,0.158458
1260.0,1.78604,612.632,2473.98,2473.07,1.78642,0.156438
1272.0,1.78643,613.292,2491.55,2490.61,1.78643,0.156448
1284.0,1.78358,613.952,2509.07,2508.12,1.7839,0.153918
1296.0,1.78351,614.612,2526.56,2525.59,1.78351,0.153528
1308.0,1.78084,615.272,2544.02,2543.01,1.78084,0.150858
1320.0,1.78014,615.932,2561.43,2560.41,1.78014,0.150158
1332.0,1.77686,616.592,2578.81,2577.76,1.77686,0.146878
1344.0,1.77527,617.252,2596.15,2595.08,1.77532,0.145338
1356.0,1.77382,617.912,2613.45,2612.36,1.77382,0.143838
1368.0,1.77261,618.572,2630.72,2629.6,1.77261,0.142628
1380.0,1.76975,619.232,2647.95,2646.81,1.77023,0.140248
1392.0,1.7678,619.892,2665.14,2663.98,1.7678,0.137818
1404.0,1.76494,620.551,2682.29,2681.12,1.76528,0.135298
1416.0,1.76413,621.211,2699.41,2698.21,1.76413,0.134148
1428.0,1.76358,621.871,2716.5,2715.27,1.7623,0.132318
1440.0,1.76075,622.531,2733.54,2732.3,1.76093,0.130948
1452.0,1.75787,623.191,2750.56,2749.29,1.75787,0.127888
1464.0,1.75612,623.851,2767.53,2766.24,1.75578,0.125798
1476.0,1.75497,624.511,2784.47,2783.16,1.75475,0.124768
1488.0,1.75038,625.171,2801.37,2800.04,1.75057,0.120588
1500.0,1.74772,625.831,2818.24,2816.89,1.74822,0.118238
1512.0,1.74688,626.491,2835.07,2833.7,1.74684,0.116858
1524.0,1.74708,627.151,2851.87,2850.47,1.74695,0.116968
1536.0,1.74426,627.811,2868.63,2867.21,1.74361,0.113628
1548.0,1.74114,628.471,2885.36,2883.92,1.74114,0.111158
1560.0,1.74056,629.131,2902.05,2900.59,1.74056,0.110578
1572.0,1.73772,629.791,2918.7,2917.22,1.73769,0.107708
1584.0,1.73369,630.451,2935.32,2933.82,1.73369,0.103708
1596.0,1.73093,631.111,2951.91,2950.38,1.7317,0.101718
1608.0,1.72903,631.771,2968.46,2966.92,1.72903,0.0990475
1620.0,1.72619,632.431,2984.98,2983.41,1.72602,0.0960375
1632.0,1.72392,633.091,3001.46,2999.87,1.72392,0.0939375
1644.0,1.72068,633.75,3017.91,3016.3,1.72068,0.0906975
1656.0,1.71716,634.41,3034.33,3032.69,1.71751,0.0875275
1668.0,1.71358,635.07,3050.71,3049.05,1.71383,0.0838475
1680.0,1.71139,635.73,3067.05,3065.38,1.71139,0.0814075
1692.0,1.70831,636.39,3083.36,3081.67,1.70848,0.0784975
1704.0,1.70583,637.05,3099.64,3097.93,1.70587,0.0758875
1716.0,1.70449,637.71,3115.89,3114.15,1.7036,0.0736175
1728.0,1.70082,638.37,3132.1,3130.34,1.70082,0.0708375
1740.0,1.69825,639.03,3148.28,3146.5,1.69825,0.0682675
1752.0,1.69692,639.69,3164.42,3162.62,1.69692,0.0669375
1764.0,1.69314,640.35,3180.53,3178.71,1.69314,0.0631575
1776.0,1.69007,641.01,3196.61,3194.77,1.68982,0.0598375
1788.0,1.68623,641.67,3212.65,3210.79,1.68623,0.0562475
1800.0,1.68455,642.33,3228.67,3226.78,1.68496,0.0549775
1812.0,1.68355,642.99,3244.65,3242.74,1.68238,0.0523975
1824.0,1.68106,643.65,3260.59,3258.67,1.68146,0.0514775
1836.0,1.67834,644.31,3276.51,3274.56,1.67834,0.0483575
1848.0,1.67706,644.97,3292.39,3290.42,1.67706,0.0470775
1860.0,1.67536,645.63,3308.23,3306.25,1.67536,0.0453775
1872.0,1.67731,646.29,3324.05,3322.05,1.67651,0.0465275
1884.0,1.67397,646.949,3339.83,3337.81,1.67451,0.0445275
1896.0,1.67597,647.609,3355.59,3353.54,1.67597,0.0459875
1908.0,1.67574,648.269,3371.31,3369.24,1.67574,0.0457575
1920.0,1.67657,648.929,3386.99,3384.91,1.67516,0.0451775
1932.0,1.67815,649.589,3402.65,3400.54,1.6776,0.0476175
1944.0,1.67497,650.249,3418.27,3416.15,1.67502,0.0450375
1956.0,1.67622,650.909,3433.87,3431.72,1.67622,0.0462375
1968.0,1.67806,651.569,3449.43,3447.26,1.67806,0.0480775
1980.0,1.67833,652.229,3464.96,3462.77,1.67786,0.0478775
1992.0,1.67898,652.889,3480.45,3478.25,1.6783,0.0483175
2004.0,1.68131,653.549,3495.92,3493.69,1.68083,0.0508475
2016.0,1.67534,654.209,3511.36,3509.11,1.67627,0.0462875
2028.0,1.67717,654.869,3526.76,3524.49,1.67796,0.0479775
2040.0,1.67656,655.529,3542.13,3539.85,1.67739,0.0474075
2047.0,1.67652,655.914,3551.09,3548.79,1.67636,0.0463775