File: data/processed/processed_data/2024-09-03/2024-09-03_glycinepowder_n_y_y_solid_100_0_5.csv
Pixels #,Intensity (a.u.),Wavelength (nm),Raman shift (cm-1),Raman shift (cm-1) adjusted,Filtered Intensity (a.u.),Baselined Filtered Intensity (a.u.)
0.0,0.0264042,543.337,392.223,393.994,0.0146564,0.0143827
13.0,0.00715696,544.052,416.409,418.148,0.0116717,0.011398
26.0,0.00658428,544.767,440.532,442.24,0.00667262,0.00639889
39.0,0.00275377,545.482,464.591,466.268,0.0105738,0.0103001
52.0,0.00894179,546.197,488.587,490.233,0.00195315,0.0016794
65.0,0.0104387,546.912,512.521,514.136,0.011724,0.0114502
78.0,0.0265899,547.627,536.392,537.976,0.0268026,0.0265288
91.0,0.0332488,548.342,560.2,561.754,0.0346597,0.0343859
104.0,0.042923,549.057,583.947,585.47,0.042923,0.0426492
117.0,0.0341699,549.772,607.632,609.125,0.0341699,0.0338961
130.0,0.0234958,550.487,631.255,632.718,0.0233016,0.0230278
143.0,0.0328023,551.202,654.818,656.25,0.0328023,0.0325285
156.0,0.0,551.917,678.319,679.72,0.0143402,0.0140664
169.0,0.0097225,552.632,701.759,703.13,0.0099737,0.00969986
182.0,0.000442512,553.347,725.139,726.48,0.00152974,0.00125591
195.0,0.0175514,554.062,748.458,749.769,0.0189453,0.0186715
208.0,0.0239299,554.777,771.717,772.999,0.0224338,0.02216
221.0,0.0370492,555.491,794.917,796.168,0.0370492,0.0367754
234.0,0.0890559,556.206,818.057,819.278,0.0890559,0.0887821
247.0,0.134697,556.921,841.137,842.329,0.134697,0.134423
260.0,0.169147,557.636,864.158,865.321,0.169649,0.169375
273.0,0.203878,558.351,887.12,888.253,0.19382,0.193546
286.0,0.104313,559.066,910.024,911.127,0.106579,0.106305
299.0,0.0590933,559.781,932.869,933.943,0.0673536,0.0670799
312.0,0.0640249,560.496,955.656,956.7,0.0640249,0.0637512
325.0,0.0131511,561.211,978.384,979.4,0.0137182,0.0134446
338.0,0.0512151,561.926,1001.06,1002.04,0.0489631,0.0486895
351.0,0.031219,562.641,1023.67,1024.63,0.031219,0.0309454
364.0,0.0334224,563.356,1046.22,1047.15,0.0334224,0.0331488
377.0,0.0232145,564.071,1068.72,1069.62,0.0232145,0.022941
390.0,0.0485045,564.786,1091.16,1092.03,0.0462415,0.045968
403.0,0.0355882,565.501,1113.55,1114.39,0.0255413,0.0252678
416.0,0.0,566.216,1135.88,1136.69,0.00952078,0.00924731
429.0,0.0150204,566.931,1158.15,1158.93,0.0194009,0.0191274
442.0,0.014637,567.646,1180.37,1181.12,0.0298785,0.0296051
455.0,0.0111924,568.361,1202.53,1203.25,0.0246572,0.0243838
468.0,0.0263196,569.075,1224.63,1225.33,0.0243682,0.0240948
481.0,0.0418826,569.79,1246.68,1247.35,0.0343501,0.0340767
494.0,0.0112878,570.505,1268.67,1269.31,0.0142242,0.0139509
507.0,0.0129435,571.22,1290.61,1291.22,0.0129435,0.0126702
520.0,0.0779351,571.935,1312.5,1313.08,0.0779351,0.0776618
533.0,0.03926,572.65,1334.32,1334.88,0.03926,0.0389867
546.0,0.0533236,573.365,1356.1,1356.63,0.0354727,0.0351994
559.0,0.00766183,574.08,1377.82,1378.32,0.0121492,0.011876
572.0,0.0200607,574.795,1399.49,1399.96,0.0239937,0.0237205
585.0,0.0306121,575.51,1421.1,1421.54,0.0306121,0.0303389
598.0,0.0185519,576.225,1442.66,1443.07,0.0185519,0.0182787
611.0,0.0179088,576.94,1464.16,1464.55,0.0139195,0.0136463
624.0,0.00684622,577.655,1485.62,1485.98,0.0255925,0.0253193
637.0,0.0139993,578.37,1507.01,1507.35,0.0135903,0.0133171
650.0,0.0105287,579.085,1528.36,1528.67,0.0139033,0.0136301
663.0,0.028756,579.8,1549.65,1549.93,0.028756,0.0284828
676.0,0.0284517,580.515,1570.9,1571.15,0.0170107,0.0167375
689.0,0.0219555,581.23,1592.09,1592.31,0.0219555,0.0216823
702.0,0.0315561,581.944,1613.22,1613.42,0.0278154,0.0275422
715.0,0.0306483,582.659,1634.31,1634.48,0.0303145,0.0300413
728.0,0.0134694,583.374,1655.34,1655.48,0.0134694,0.0131962
741.0,0.0295634,584.089,1676.32,1676.44,0.0189505,0.0186773
754.0,0.0154222,584.804,1697.25,1697.34,0.023371,0.0230978
767.0,0.0119797,585.519,1718.13,1718.2,0.0144051,0.0141319
780.0,0.020044,586.234,1738.96,1739,0.0285745,0.0283013
793.0,0.0317115,586.949,1759.74,1759.75,0.0279357,0.0276625
806.0,0.00439542,587.664,1780.47,1780.45,0.00439542,0.00412223
819.0,0.00616464,588.379,1801.14,1801.1,0.00975051,0.00947732
832.0,0.0,589.094,1821.77,1821.7,0.00621042,0.00593723
845.0,0.0449834,589.809,1842.35,1842.25,0.0358554,0.0355822
858.0,0.0460867,590.524,1862.87,1862.75,0.0436885,0.0434153
871.0,0.0160182,591.239,1883.35,1883.2,0.0232078,0.0229346
884.0,0.00636758,591.954,1903.78,1903.6,0.0207398,0.0204666
897.0,0.0217063,592.669,1924.16,1923.96,0.0202526,0.0199794
910.0,0.0193529,593.384,1944.49,1944.26,0.0177158,0.0174426
923.0,0.028972,594.099,1964.77,1964.51,0.028972,0.0286988
936.0,0.0137684,594.813,1985,1984.72,0.00924047,0.00896726
949.0,0.0156357,595.528,2005.18,2004.88,0.0156357,0.0153625
962.0,0.00711845,596.243,2025.32,2024.98,0.0130205,0.0127473
975.0,0.013575,596.958,2045.4,2045.05,0.013575,0.0133018
988.0,0.0112632,597.673,2065.44,2065.06,0.0274649,0.0271917
1001.0,0.0169221,598.388,2085.43,2085.02,0.0148742,0.0146009
1014.0,0.00453574,599.103,2105.38,2104.94,0.0,-0.000273278
1027.0,0.0271072,599.818,2125.27,2124.81,0.0271072,0.0268339
1040.0,0.0426364,600.533,2145.12,2144.63,0.0363772,0.0361039
1053.0,0.0448699,601.248,2164.92,2164.41,0.0393422,0.0390688
1066.0,0.0273228,601.963,2184.67,2184.14,0.0423227,0.0420493
1079.0,0.0380453,602.678,2204.38,2203.82,0.0233203,0.0230469
1092.0,0.0285911,603.393,2224.04,2223.45,0.0285911,0.0283176
1105.0,0.0161564,604.108,2243.65,2243.04,0.0219325,0.021659
1118.0,0.0446366,604.823,2263.22,2262.58,0.0394285,0.039155
1131.0,0.0310027,605.538,2282.74,2282.08,0.0310027,0.0307291
1144.0,0.0109855,606.253,2302.22,2301.53,0.0228856,0.022612
1157.0,0.0295125,606.968,2321.65,2320.93,0.0358988,0.0356251
1170.0,0.0196968,607.682,2341.03,2340.29,0.0189507,0.018677
1183.0,0.0108959,608.397,2360.37,2359.6,0.0134282,0.0131544
1196.0,0.00720131,609.112,2379.66,2378.87,0.010125,0.00985118
1209.0,0.0442557,609.827,2398.91,2398.09,0.0275699,0.027296
1222.0,0.0376392,610.542,2418.11,2417.27,0.0275398,0.0272659
1235.0,0.0367745,611.257,2437.27,2436.4,0.0352866,0.0350126
1248.0,0.0226357,611.972,2456.38,2455.49,0.00879364,0.00851959
1261.0,0.0229199,612.687,2475.45,2474.53,0.0218721,0.021598
1274.0,0.0428574,613.402,2494.47,2493.53,0.0321928,0.0319186
1287.0,0.0347707,614.117,2513.45,2512.49,0.022734,0.0224598
1300.0,0.0319597,614.832,2532.39,2531.4,0.0237384,0.0234641
1313.0,0.0109863,615.547,2551.28,2550.27,0.00911751,0.00884313
1326.0,0.00486821,616.262,2570.12,2569.09,0.00778141,0.00750696
1339.0,0.0196256,616.977,2588.93,2587.87,0.0184632,0.0181887
1352.0,0.00967196,617.692,2607.69,2606.6,0.0122364,0.0119618
1365.0,0.0170725,618.407,2626.4,2625.3,0.0170725,0.0167979
1378.0,0.0112832,619.122,2645.08,2643.95,0.0187041,0.0184294
1391.0,0.0172708,619.837,2663.71,2662.55,0.0172708,0.016996
1404.0,0.0396249,620.551,2682.29,2681.12,0.0256418,0.025367
1417.0,6.51402e-05,621.266,2700.84,2699.64,0.0108906,0.0106157
1430.0,0.014276,621.981,2719.34,2718.11,0.0111782,0.0109032
1443.0,0.0321191,622.696,2737.8,2736.55,0.0239646,0.0236895
1456.0,0.0156032,623.411,2756.22,2754.94,0.0156032,0.015328
1469.0,0.0139368,624.126,2774.59,2773.29,0.0157139,0.0154386
1482.0,0.0156536,624.841,2792.93,2791.6,0.0156536,0.0153783
1495.0,0.0131228,625.556,2811.22,2809.87,0.0131228,0.0128474
1508.0,0.0255003,626.271,2829.47,2828.1,0.0179997,0.0177242
1521.0,0.0170152,626.986,2847.67,2846.28,0.0258811,0.0256055
1534.0,0.00545771,627.701,2865.84,2864.42,0.0105457,0.01027
1547.0,0.0321887,628.416,2883.96,2882.53,0.0262973,0.0260215
1560.0,0.00444038,629.131,2902.05,2900.59,0.0139083,0.0136324
1573.0,0.0190935,629.846,2920.09,2918.6,0.0328661,0.0325901
1586.0,0.0138892,630.561,2938.09,2936.58,0.0134752,0.0131992
1599.0,0.0663262,631.276,2956.05,2954.52,0.048063,0.0477869
1612.0,0.0928011,631.991,2973.97,2972.42,0.0928011,0.0925249
1625.0,0.0067839,632.706,2991.85,2990.27,0.0067839,0.00650769
1638.0,0.0244052,633.421,3009.69,3008.09,0.0296042,0.0293279
1651.0,0.000106813,634.135,3027.49,3025.87,0.000106813,-0.00016952
1664.0,0.0336054,634.85,3045.25,3043.6,0.0258957,0.0256193
1677.0,0.0229757,635.565,3062.97,3061.3,0.0229757,0.0226993
1690.0,0.0252106,636.28,3080.65,3078.96,0.0252106,0.0249341
1703.0,0.00816449,636.995,3098.29,3096.57,0.00862802,0.0083515
1716.0,0.00978286,637.71,3115.89,3114.15,0.00978286,0.00950632
1729.0,0.00785601,638.425,3133.45,3131.69,0.00785601,0.00757945
1742.0,0.0138802,639.14,3150.97,3149.19,0.029176,0.0288994
1755.0,0.0430478,639.855,3168.45,3166.65,0.0430478,0.0427712
1768.0,0.0282949,640.57,3185.9,3184.07,0.0282949,0.0280183
1781.0,0.0280225,641.285,3203.3,3201.45,0.0317938,0.0315171
1794.0,0.0501731,642,3220.66,3218.79,0.0393748,0.0390981
1807.0,0.034327,642.715,3237.99,3236.1,0.034327,0.0340503
1820.0,0.0285077,643.43,3255.28,3253.36,0.0285077,0.028231
1833.0,0.0345635,644.145,3272.53,3270.59,0.0345635,0.0342868
1846.0,0.0259289,644.86,3289.74,3287.78,0.0239599,0.0236832
1859.0,0.0,645.575,3306.92,3304.93,0.0075227,0.00724598
1872.0,0.0162697,646.29,3324.05,3322.05,0.0181115,0.0178347
1885.0,0.0164506,647.004,3341.15,3339.12,0.0164506,0.0161738
1898.0,0.0184706,647.719,3358.21,3356.16,0.0184706,0.0181938
1911.0,0.0108354,648.434,3375.23,3373.16,0.0108354,0.0105585
1924.0,0.0288004,649.149,3392.22,3390.12,0.0206364,0.0203595
1937.0,0.0148608,649.864,3409.16,3407.05,0.0091729,0.00889597
1950.0,0.0114287,650.579,3426.07,3423.94,0.0114287,0.0111517
1963.0,0.0,651.294,3442.95,3440.79,0.0024033,0.00212629
1976.0,0.0121544,652.009,3459.78,3457.6,0.0128001,0.0125231
1989.0,0.0150347,652.724,3476.58,3474.38,0.0185153,0.0182382
2002.0,0.00758373,653.439,3493.34,3491.12,0.00443275,0.00415567
2015.0,0.00741072,654.154,3510.07,3507.83,0.00741072,0.00713364
2028.0,0.0,654.869,3526.76,3524.49,0.00144961,0.00117252
2041.0,0.0339491,655.584,3543.41,3541.12,0.0283276,0.0280505
2047.0,0.0,655.914,3551.09,3548.79,0.0,-0.000277094