File: data/processed/processed_data/2024-09-03/2024-09-03_calcitecrystal_n_y_y_solid_1000_0_5.csv
Pixels #,Intensity (a.u.),Wavelength (nm),Raman shift (cm-1),Raman shift (cm-1) adjusted,Filtered Intensity (a.u.),Baselined Filtered Intensity (a.u.)
0.0,0.000642151,543.337,392.223,393.994,0.0,-1.75931e-06
13.0,0.00135869,544.052,416.409,418.148,0.00110412,0.00110236
26.0,0.00162992,544.767,440.532,442.24,0.00162992,0.00162816
39.0,0.00262423,545.482,464.591,466.268,0.00184297,0.00184121
52.0,0.000720353,546.197,488.587,490.233,0.000115142,0.000113387
65.0,0.000650161,546.912,512.521,514.136,0.000650161,0.000648407
78.0,0.0,547.627,536.392,537.976,0.000773251,0.000771498
91.0,0.00144859,548.342,560.2,561.754,0.000195315,0.000193563
104.0,0.00224715,549.057,583.947,585.47,0.00224715,0.0022454
117.0,0.0,549.772,607.632,609.125,0.00071266,0.00071091
130.0,0.00151147,550.487,631.255,632.718,0.000821508,0.000819759
143.0,0.00117672,551.202,654.818,656.25,0.000976577,0.000974829
156.0,0.000216678,551.917,678.319,679.72,0.000216678,0.000214931
169.0,0.00152616,552.632,701.759,703.13,0.00032241,0.000320663
182.0,0.0,553.347,725.139,726.48,0.0,-1.74623e-06
195.0,0.0,554.062,748.458,749.769,0.000242618,0.000240872
208.0,0.000958521,554.777,771.717,772.999,0.000958521,0.000956776
221.0,0.000387579,555.491,794.917,796.168,0.000533684,0.000531939
234.0,0.00168002,556.206,818.057,819.278,0.000767974,0.000766229
247.0,6.47237e-05,556.921,841.137,842.329,0.000886422,0.000884677
260.0,0.000335508,557.636,864.158,865.321,0.00117609,0.00117435
273.0,0.000526436,558.351,887.12,888.253,0.000107195,0.00010545
286.0,0.0,559.066,910.024,911.127,0.000192899,0.000191154
299.0,0.00112281,559.781,932.869,933.943,0.00112281,0.00112107
312.0,0.00123846,560.496,955.656,956.7,7.17174e-05,6.99726e-05
325.0,0.00092476,561.211,978.384,979.4,0.000828628,0.000826883
338.0,0.000709862,561.926,1001.06,1002.04,0.000709862,0.000708117
351.0,0.0027863,562.641,1023.67,1024.63,0.00155439,0.00155264
364.0,0.0,563.356,1046.22,1047.15,0.000323873,0.000322127
377.0,0.00650111,564.071,1068.72,1069.62,0.00650111,0.00649936
390.0,0.0,564.786,1091.16,1092.03,0.0,-1.74723e-06
403.0,0.000440223,565.501,1113.55,1114.39,0.000444292,0.000442544
416.0,0.0007187,566.216,1135.88,1136.69,0.0007187,0.000716951
429.0,0.00218713,566.931,1158.15,1158.93,0.00141159,0.00140984
442.0,0.0,567.646,1180.37,1181.12,0.000631851,0.000630101
455.0,0.00100099,568.361,1202.53,1203.25,0.00100099,0.000999239
468.0,0.0016839,569.075,1224.63,1225.33,0.0016839,0.00168215
481.0,0.000100837,569.79,1246.68,1247.35,0.000100837,9.90834e-05
494.0,0.00191145,570.505,1268.67,1269.31,0.000700326,0.000698571
507.0,0.00198177,571.22,1290.61,1291.22,0.00112472,0.00112296
520.0,0.00199804,571.935,1312.5,1313.08,0.00199804,0.00199628
533.0,0.000952926,572.65,1334.32,1334.88,0.000579525,0.000577766
546.0,0.00167849,573.365,1356.1,1356.63,0.00167849,0.00167673
559.0,0.00204267,574.08,1377.82,1378.32,0.00159965,0.00159789
572.0,0.000622568,574.795,1399.49,1399.96,0.000822461,0.000820699
585.0,0.00151185,575.51,1421.1,1421.54,0.00156939,0.00156763
598.0,0.0,576.225,1442.66,1443.07,0.00146766,0.0014659
611.0,0.0,576.94,1464.16,1464.55,0.000387579,0.000385814
624.0,0.0020524,577.655,1485.62,1485.98,0.00116636,0.00116459
637.0,0.000325271,578.37,1507.01,1507.35,0.000325271,0.000323504
650.0,3.0518e-06,579.085,1528.36,1528.67,0.000677373,0.000675605
663.0,0.000720544,579.8,1549.65,1549.93,0.00167728,0.00167551
676.0,0.00172783,580.515,1570.9,1571.15,0.000826658,0.000824889
689.0,0.000890173,581.23,1592.09,1592.31,0.00114754,0.00114577
702.0,0.000301938,581.944,1613.22,1613.42,0.000301938,0.000300167
715.0,0.00127871,582.659,1634.31,1634.48,0.00127871,0.00127694
728.0,0.000888965,583.374,1655.34,1655.48,0.000450459,0.000448688
741.0,0.000390631,584.089,1676.32,1676.44,0.000390631,0.000388861
754.0,0.000708527,584.804,1697.25,1697.34,0.000862198,0.000860428
767.0,0.00204916,585.519,1718.13,1718.2,0.00204916,0.00204739
780.0,0.000137331,586.234,1738.96,1739,0.000663767,0.000661998
793.0,0.0,586.949,1759.74,1759.75,4.88289e-05,4.706e-05
806.0,0.00160957,587.664,1780.47,1780.45,2.92465e-05,2.74785e-05
819.0,0.000247196,588.379,1801.14,1801.1,0.00117494,0.00117317
832.0,0.0,589.094,1821.77,1821.7,0.0,-1.76553e-06
845.0,0.00297468,589.809,1842.35,1842.25,0.00271312,0.00271136
858.0,0.0013496,590.524,1862.87,1862.75,0.000340213,0.00033845
871.0,0.00224524,591.239,1883.35,1883.2,0.00185461,0.00185285
884.0,0.000138857,591.954,1903.78,1903.6,0.00160004,0.00159828
897.0,0.00131762,592.669,1924.16,1923.96,0.00131762,0.00131586
910.0,0.00121831,593.384,1944.49,1944.26,0.00106088,0.00105912
923.0,0.0,594.099,1964.77,1964.51,0.000407416,0.000405657
936.0,0.0,594.813,1985,1984.72,0.000259403,0.000257644
949.0,0.00219005,595.528,2005.18,2004.88,0.00124647,0.00124471
962.0,0.000990311,596.243,2025.32,2024.98,0.00170545,0.00170369
975.0,0.000674449,596.958,2045.4,2045.05,0.000674449,0.000672693
988.0,0.0,597.673,2065.44,2065.06,0.000538008,0.000536253
1001.0,0.00272075,598.388,2085.43,2085.02,0.00190337,0.00190162
1014.0,0.00053254,599.103,2105.38,2104.94,0.00053254,0.000530786
1027.0,0.00111238,599.818,2125.27,2124.81,0.000749409,0.000747656
1040.0,0.0,600.533,2145.12,2144.63,0.000102235,0.000100483
1053.0,0.000603113,601.248,2164.92,2164.41,0.000829964,0.000828213
1066.0,2.07904e-05,601.963,2184.67,2184.14,0.00135297,0.00135122
1079.0,0.0040692,602.678,2204.38,2203.82,0.00271153,0.00270978
1092.0,0.0,603.393,2224.04,2223.45,0.000446072,0.000444322
1105.0,0.000540169,604.108,2243.65,2243.04,0.000307469,0.00030572
1118.0,0.0029806,604.823,2263.22,2262.58,0.000916559,0.00091481
1131.0,0.000387261,605.538,2282.74,2282.08,0.000604448,0.0006027
1144.0,4.45055e-05,606.253,2302.22,2301.53,4.45055e-05,4.27578e-05
1157.0,0.000796139,606.968,2321.65,2320.93,0.000796139,0.000794392
1170.0,0.0,607.682,2341.03,2340.29,0.000392348,0.000390602
1183.0,0.00298123,608.397,2360.37,2359.6,0.000154116,0.000152371
1196.0,0.00378665,609.112,2379.66,2378.87,0.00117558,0.00117384
1209.0,0.00254012,609.827,2398.91,2398.09,0.00254012,0.00253838
1222.0,0.000737901,610.542,2418.11,2417.27,0.000737901,0.000736157
1235.0,0.000792452,611.257,2437.27,2436.4,0.000792452,0.000790709
1248.0,0.00012487,611.972,2456.38,2455.49,0.00115511,0.00115337
1261.0,0.00259289,612.687,2475.45,2474.53,0.00179052,0.00178878
1274.0,0.00053947,613.402,2494.47,2493.53,0.0,-1.74119e-06
1287.0,0.0003034,614.117,2513.45,2512.49,0.00122854,0.0012268
1300.0,0.0020072,614.832,2532.39,2531.4,0.000275235,0.000273495
1313.0,0.0,615.547,2551.28,2550.27,9.61318e-05,9.43915e-05
1326.0,0.000644821,616.262,2570.12,2569.09,0.0,-1.74014e-06
1339.0,0.00225999,616.977,2588.93,2587.87,0.00173781,0.00173607
1352.0,0.00205189,617.692,2607.69,2606.6,0.00114449,0.00114275
1365.0,0.000412693,618.407,2626.4,2625.3,0.000203962,0.000202222
1378.0,0.00061176,619.122,2645.08,2643.95,0.0018033,0.00180156
1391.0,0.000448615,619.837,2663.71,2662.55,0.000448615,0.000446875
1404.0,0.000512703,620.551,2682.29,2681.12,0.000350958,0.000349217
1417.0,0.0,621.266,2700.84,2699.64,0.0,-1.7408e-06
1430.0,0.00122326,621.981,2719.34,2718.11,0.00123897,0.00123723
1443.0,0.0,622.696,2737.8,2736.55,3.83383e-05,3.65975e-05
1456.0,0.000984906,623.411,2756.22,2754.94,0.000984906,0.000983166
1469.0,0.00151916,624.126,2774.59,2773.29,0.000357061,0.000355321
1482.0,0.0,624.841,2792.93,2791.6,0.0,-1.73921e-06
1495.0,0.000469978,625.556,2811.22,2809.87,0.000469978,0.00046824
1508.0,0.0,626.271,2829.47,2828.1,0.0,-1.73774e-06
1521.0,0.0,626.986,2847.67,2846.28,0.0,-1.73715e-06
1534.0,1.22072e-05,627.701,2865.84,2864.42,0.000459042,0.000457305
1547.0,0.0,628.416,2883.96,2882.53,0.0,-1.73615e-06
1560.0,0.000843824,629.131,2902.05,2900.59,0.000843824,0.000842089
1573.0,0.0021657,629.846,2920.09,2918.6,0.000810381,0.000808646
1586.0,0.0,630.561,2938.09,2936.58,0.00120705,0.00120532
1599.0,0.00108975,631.276,2956.05,2954.52,0.000419623,0.00041789
1612.0,0.0,631.991,2973.97,2972.42,0.000608835,0.000607103
1625.0,0.000273454,632.706,2991.85,2990.27,0.000735803,0.000734071
1638.0,0.0,633.421,3009.69,3008.09,0.000588299,0.000586568
1651.0,0.0,634.135,3027.49,3025.87,0.0,-1.73082e-06
1664.0,0.00185473,634.85,3045.25,3043.6,0.000387897,0.000386167
1677.0,0.0,635.565,3062.97,3061.3,0.000161428,0.000159698
1690.0,0.000774014,636.28,3080.65,3078.96,0.000774014,0.000772284
1703.0,0.0,636.995,3098.29,3096.57,0.0,-1.72983e-06
1716.0,0.0,637.71,3115.89,3114.15,0.000264871,0.000263141
1729.0,0.00207891,638.425,3133.45,3131.69,0.00113591,0.00113418
1742.0,0.0,639.14,3150.97,3149.19,0.0,-1.72986e-06
1755.0,0.00113807,639.855,3168.45,3166.65,0.0,-1.72982e-06
1768.0,0.0,640.57,3185.9,3184.07,0.0,-1.72989e-06
1781.0,0.00262462,641.285,3203.3,3201.45,0.000969139,0.000967409
1794.0,0.00247082,642,3220.66,3218.79,0.00167938,0.00167765
1807.0,0.00103227,642.715,3237.99,3236.1,0.000163272,0.000161542
1820.0,0.00134279,643.43,3255.28,3253.36,0.00106851,0.00106678
1833.0,0.00160569,644.145,3272.53,3270.59,0.00160569,0.00160396
1846.0,0.000340594,644.86,3289.74,3287.78,0.000369841,0.000368112
1859.0,0.00141165,645.575,3306.92,3304.93,0.0014697,0.00146797
1872.0,0.0022137,646.29,3324.05,3322.05,0.00212088,0.00211915
1885.0,0.0,647.004,3341.15,3339.12,0.0,-1.728e-06
1898.0,0.00124259,647.719,3358.21,3356.16,0.000482185,0.000480457
1911.0,0.00248894,648.434,3375.23,3373.16,0.00113336,0.00113163
1924.0,0.0,649.149,3392.22,3390.12,0.0,-1.72636e-06
1937.0,0.0,649.864,3409.16,3407.05,0.0,-1.72568e-06
1950.0,0.00112523,650.579,3426.07,3423.94,0.00112523,0.0011235
1963.0,0.0,651.294,3442.95,3440.79,0.0,-1.72459e-06
1976.0,0.00126116,652.009,3459.78,3457.6,0.0,-1.72418e-06
1989.0,0.00250966,652.724,3476.58,3474.38,0.00194889,0.00194717
2002.0,0.000347906,653.439,3493.34,3491.12,0.000347906,0.000346182
2015.0,0.000365326,654.154,3510.07,3507.83,0.00134209,0.00134037
2028.0,0.000608708,654.869,3526.76,3524.49,0.00127362,0.0012719
2041.0,0.00501723,655.584,3543.41,3541.12,0.000836194,0.000834471
2047.0,0.000554411,655.914,3551.09,3548.79,0.000128176,0.000126453