File: data/processed/processed_data/2024-09-03/2024-09-03_glycinepowder_n_n_y_solid_1000_0_5.csv
Pixels #,Intensity (a.u.),Wavelength (nm),Raman shift (cm-1),Raman shift (cm-1) adjusted,Filtered Intensity (a.u.),Baselined Filtered Intensity (a.u.)
0.0,7.56125,543.337,392.223,393.994,7.56034,-0.080757
12.0,7.56095,543.997,414.551,416.293,7.56095,-0.0801531
24.0,7.56065,544.657,436.825,438.537,7.56065,-0.0804706
36.0,7.55921,545.317,459.044,460.728,7.56039,-0.0807594
48.0,7.56311,545.977,481.21,482.866,7.56311,-0.0780796
60.0,7.59026,546.637,503.323,504.95,7.59026,-0.0509804
72.0,7.6187,547.297,525.382,526.981,7.6187,-0.0225988
84.0,7.65128,547.957,547.388,548.958,7.65128,0.00991966
96.0,7.65855,548.617,569.341,570.883,7.65779,0.0163692
108.0,7.65821,549.277,591.241,592.755,7.65924,0.017761
120.0,7.66509,549.937,613.089,614.575,7.6622,0.0206655
132.0,7.65773,550.597,634.884,636.342,7.65919,0.0176027
144.0,7.66249,551.257,656.627,658.057,7.66473,0.0230927
156.0,7.6737,551.917,678.319,679.72,7.67404,0.032356
168.0,7.69382,552.577,699.958,701.332,7.69382,0.0520942
180.0,7.72411,553.237,721.546,722.892,7.72411,0.0823499
192.0,7.7786,553.897,743.082,744.4,7.7786,0.136818
204.0,7.85047,554.557,764.567,765.858,7.85047,0.208683
216.0,7.96996,555.217,786.001,787.264,7.96996,0.328173
228.0,8.12383,555.876,807.384,808.62,8.12383,0.482043
240.0,8.31524,556.536,828.716,829.924,8.31524,0.673453
252.0,8.49807,557.196,849.998,851.179,8.49807,0.856283
264.0,8.62922,557.856,871.23,872.383,8.62922,0.987433
276.0,8.74833,558.516,892.411,893.537,8.75003,1.10824
288.0,8.73482,559.176,913.542,914.641,8.73575,1.09396
300.0,8.74792,559.836,934.624,935.695,8.74594,1.10415
312.0,8.75089,560.496,955.656,956.7,8.74779,1.106
324.0,8.74612,561.156,976.638,977.655,8.74808,1.10629
336.0,8.76374,561.816,997.571,998.562,8.7644,1.12261
348.0,8.7821,562.476,1018.45,1019.42,8.78374,1.14195
360.0,8.81992,563.136,1039.29,1040.23,8.81992,1.17813
372.0,8.82275,563.796,1060.08,1060.99,8.82435,1.18256
384.0,8.83261,564.456,1080.81,1081.7,8.83261,1.19082
396.0,8.84588,565.116,1101.5,1102.36,8.84516,1.20337
408.0,8.84762,565.776,1122.14,1122.97,8.84849,1.2067
420.0,8.85983,566.436,1142.74,1143.54,8.85735,1.21556
432.0,8.86888,567.096,1163.28,1164.06,8.86424,1.22245
444.0,8.8728,567.756,1183.78,1184.53,8.87351,1.23172
456.0,8.88658,568.416,1204.23,1204.95,8.88719,1.2454
468.0,8.89446,569.075,1224.63,1225.33,8.89446,1.25267
480.0,8.90098,569.735,1244.99,1245.66,8.90067,1.25888
492.0,8.90713,570.395,1265.29,1265.94,8.90621,1.26442
504.0,8.91863,571.055,1285.55,1286.17,8.91863,1.27684
516.0,8.94248,571.715,1305.77,1306.36,8.94385,1.30206
528.0,9.0063,572.375,1325.94,1326.5,9.0063,1.36451
540.0,8.94054,573.035,1346.06,1346.6,8.94069,1.2989
552.0,8.96033,573.695,1366.13,1366.65,8.95484,1.31305
564.0,8.97114,574.355,1386.16,1386.65,8.97114,1.32935
576.0,9.00423,575.015,1406.14,1406.61,9.00396,1.36217
588.0,8.98303,575.675,1426.08,1426.52,8.98256,1.34077
600.0,8.99496,576.335,1445.97,1446.38,8.99496,1.35317
612.0,8.98118,576.995,1465.82,1466.2,8.98299,1.3412
624.0,8.9951,577.655,1485.62,1485.98,8.9951,1.35331
636.0,9.00299,578.315,1505.37,1505.71,9.00299,1.3612
648.0,9.00926,578.975,1525.08,1525.39,9.00926,1.36747
660.0,9.00888,579.635,1544.75,1545.03,9.0129,1.37111
672.0,9.0192,580.295,1564.37,1564.63,9.02201,1.38022
684.0,9.01952,580.955,1583.94,1584.18,9.01465,1.37286
696.0,9.00708,581.614,1603.47,1603.68,9.00897,1.36718
708.0,9.01572,582.274,1622.96,1623.15,9.01495,1.37316
720.0,9.00362,582.934,1642.4,1642.56,9.01058,1.36879
732.0,9.01298,583.594,1661.8,1661.94,9.0148,1.37301
744.0,9.00774,584.254,1681.16,1681.27,9.01331,1.37152
756.0,9.01394,584.914,1700.47,1700.55,9.01394,1.37215
768.0,9.01896,585.574,1719.74,1719.8,9.01896,1.37717
780.0,9.01946,586.234,1738.96,1739,9.01946,1.37767
792.0,9.01479,586.894,1758.14,1758.15,9.01509,1.3733
804.0,9.01222,587.554,1777.28,1777.27,9.01222,1.37043
816.0,9.01756,588.214,1796.38,1796.34,9.01475,1.37296
828.0,9.01494,588.874,1815.43,1815.37,9.01631,1.37452
840.0,9.01359,589.534,1834.44,1834.35,9.01359,1.3718
852.0,9.02374,590.194,1853.41,1853.29,9.01946,1.37767
864.0,9.02183,590.854,1872.33,1872.2,9.02274,1.38095
876.0,9.01069,591.514,1891.21,1891.05,9.01367,1.37188
888.0,9.01925,592.174,1910.05,1909.87,9.02081,1.37902
900.0,9.01318,592.834,1928.85,1928.64,9.01318,1.37139
912.0,9.00125,593.494,1947.61,1947.38,9.00125,1.35946
924.0,8.99749,594.154,1966.33,1966.07,8.99749,1.3557
936.0,9.0001,594.813,1985,1984.72,8.99832,1.35653
948.0,8.98901,595.473,2003.63,2003.33,8.98491,1.34312
960.0,8.97457,596.133,2022.22,2021.89,8.97584,1.33405
972.0,8.96708,596.793,2040.77,2040.42,8.96708,1.32529
984.0,8.95962,597.453,2059.28,2058.91,8.95934,1.31755
996.0,8.9497,598.113,2077.75,2077.35,8.9497,1.30791
1008.0,8.93841,598.773,2096.18,2095.75,8.93918,1.29739
1020.0,8.93527,599.433,2114.56,2114.12,8.93421,1.29242
1032.0,8.92293,600.093,2132.91,2132.44,8.92293,1.28114
1044.0,8.91547,600.753,2151.22,2150.72,8.91599,1.2742
1056.0,8.90533,601.413,2169.48,2168.96,8.90533,1.26354
1068.0,8.8961,602.073,2187.71,2187.17,8.8992,1.25741
1080.0,8.89738,602.733,2205.89,2205.33,8.89468,1.25289
1092.0,8.89254,603.393,2224.04,2223.45,8.89254,1.25075
1104.0,8.87963,604.053,2242.15,2241.54,8.87963,1.23784
1116.0,8.87665,604.713,2260.21,2259.58,8.87778,1.23599
1128.0,8.86011,605.373,2278.24,2277.58,8.86284,1.22105
1140.0,8.85784,606.033,2296.23,2295.55,8.85919,1.2174
1152.0,8.84805,606.693,2314.18,2313.47,8.85088,1.20909
1164.0,8.84328,607.353,2332.09,2331.36,8.84615,1.20436
1176.0,8.83828,608.012,2349.96,2349.21,8.83944,1.19765
1188.0,8.83288,608.672,2367.79,2367.02,8.83288,1.19109
1200.0,8.82713,609.332,2385.59,2384.79,8.82588,1.18409
1212.0,8.82082,609.992,2403.34,2402.52,8.81967,1.17788
1224.0,8.80431,610.652,2421.06,2420.22,8.80431,1.16252
1236.0,8.79763,611.312,2438.74,2437.87,8.80014,1.15835
1248.0,8.79498,611.972,2456.38,2455.49,8.7947,1.15291
1260.0,8.77638,612.632,2473.98,2473.07,8.77809,1.1363
1272.0,8.77065,613.292,2491.55,2490.61,8.77065,1.12886
1284.0,8.7604,613.952,2509.07,2508.12,8.76069,1.1189
1296.0,8.7506,614.612,2526.56,2525.59,8.7506,1.10881
1308.0,8.73485,615.272,2544.02,2543.01,8.73507,1.09328
1320.0,8.71882,615.932,2561.43,2560.41,8.72028,1.07849
1332.0,8.70615,616.592,2578.81,2577.76,8.71169,1.0699
1344.0,8.70647,617.252,2596.15,2595.08,8.70406,1.06227
1356.0,8.69202,617.912,2613.45,2612.36,8.69202,1.05023
1368.0,8.68077,618.572,2630.72,2629.6,8.67995,1.03816
1380.0,8.66418,619.232,2647.95,2646.81,8.66418,1.02239
1392.0,8.64905,619.892,2665.14,2663.98,8.65082,1.00903
1404.0,8.64191,620.551,2682.29,2681.12,8.64163,0.999843
1416.0,8.63666,621.211,2699.41,2698.21,8.6364,0.994613
1428.0,8.63037,621.871,2716.5,2715.27,8.62702,0.985233
1440.0,8.61377,622.531,2733.54,2732.3,8.61571,0.973923
1452.0,8.59964,623.191,2750.56,2749.29,8.60057,0.958783
1464.0,8.59701,623.851,2767.53,2766.24,8.59701,0.955223
1476.0,8.591,624.511,2784.47,2783.16,8.58935,0.947563
1488.0,8.58018,625.171,2801.37,2800.04,8.57967,0.937883
1500.0,8.57157,625.831,2818.24,2816.89,8.57142,0.929633
1512.0,8.56453,626.491,2835.07,2833.7,8.56523,0.923443
1524.0,8.55192,627.151,2851.87,2850.47,8.55192,0.910133
1536.0,8.55335,627.811,2868.63,2867.21,8.55157,0.909783
1548.0,8.54086,628.471,2885.36,2883.92,8.5396,0.897813
1560.0,8.52959,629.131,2902.05,2900.59,8.52959,0.887803
1572.0,8.51696,629.791,2918.7,2917.22,8.51696,0.875173
1584.0,8.51027,630.451,2935.32,2933.82,8.50964,0.867853
1596.0,8.51155,631.111,2951.91,2950.38,8.51155,0.869763
1608.0,8.56122,631.771,2968.46,2966.92,8.56008,0.918293
1620.0,8.48576,632.431,2984.98,2983.41,8.48576,0.843973
1632.0,8.48181,633.091,3001.46,2999.87,8.48075,0.838963
1644.0,8.4409,633.75,3017.91,3016.3,8.4409,0.799113
1656.0,8.41603,634.41,3034.33,3032.69,8.41603,0.774243
1668.0,8.40301,635.07,3050.71,3049.05,8.40373,0.761943
1680.0,8.38042,635.73,3067.05,3065.38,8.38079,0.739003
1692.0,8.37284,636.39,3083.36,3081.67,8.37284,0.731053
1704.0,8.36384,637.05,3099.64,3097.93,8.36299,0.721203
1716.0,8.35156,637.71,3115.89,3114.15,8.35155,0.709763
1728.0,8.34645,638.37,3132.1,3130.34,8.34645,0.704663
1740.0,8.33325,639.03,3148.28,3146.5,8.33325,0.691463
1752.0,8.32227,639.69,3164.42,3162.62,8.31896,0.677173
1764.0,8.30258,640.35,3180.53,3178.71,8.30249,0.660703
1776.0,8.28708,641.01,3196.61,3194.77,8.28777,0.645983
1788.0,8.27782,641.67,3212.65,3210.79,8.27782,0.636033
1800.0,8.26137,642.33,3228.67,3226.78,8.26137,0.619583
1812.0,8.25282,642.99,3244.65,3242.74,8.25282,0.611033
1824.0,8.23861,643.65,3260.59,3258.67,8.24063,0.598843
1836.0,8.22815,644.31,3276.51,3274.56,8.22815,0.586363
1848.0,8.21824,644.97,3292.39,3290.42,8.21928,0.577493
1860.0,8.20145,645.63,3308.23,3306.25,8.20422,0.562433
1872.0,8.20185,646.29,3324.05,3322.05,8.20168,0.559893
1884.0,8.18607,646.949,3339.83,3337.81,8.18493,0.543143
1896.0,8.17781,647.609,3355.59,3353.54,8.17824,0.536453
1908.0,8.1674,648.269,3371.31,3369.24,8.16793,0.526143
1920.0,8.16445,648.929,3386.99,3384.91,8.16258,0.520793
1932.0,8.1494,649.589,3402.65,3400.54,8.14961,0.507823
1944.0,8.14237,650.249,3418.27,3416.15,8.14151,0.499723
1956.0,8.12779,650.909,3433.87,3431.72,8.12779,0.486003
1968.0,8.11911,651.569,3449.43,3447.26,8.11925,0.477463
1980.0,8.10399,652.229,3464.96,3462.77,8.10453,0.462743
1992.0,8.10261,652.889,3480.45,3478.25,8.10286,0.461073
2004.0,8.08651,653.549,3495.92,3493.69,8.08712,0.445333
2016.0,8.07454,654.209,3511.36,3509.11,8.07618,0.434393
2028.0,8.06655,654.869,3526.76,3524.49,8.06655,0.424763
2040.0,8.0599,655.529,3542.13,3539.85,8.06141,0.419623
2047.0,8.04799,655.914,3551.09,3548.79,8.04799,0.406203