File: data/processed/processed_data/2024-09-03/2024-09-03_aluminumfoil1cmaway_n_n_y_solid_1000_0_5.csv
Pixels #,Intensity (a.u.),Wavelength (nm),Raman shift (cm-1),Raman shift (cm-1) adjusted,Filtered Intensity (a.u.),Baselined Filtered Intensity (a.u.)
0.0,7.54591,543.337,392.223,393.994,7.54531,0.000155252
12.0,7.54436,543.997,414.551,416.293,7.54436,-0.000794751
24.0,7.54601,544.657,436.825,438.537,7.54547,0.000315216
36.0,7.54673,545.317,459.044,460.728,7.54643,0.00127524
48.0,7.54549,545.977,481.21,482.866,7.54549,0.000335365
60.0,7.54625,546.637,503.323,504.95,7.54504,-0.000114558
72.0,7.54628,547.297,525.382,526.981,7.54527,0.000115394
84.0,7.54543,547.957,547.388,548.958,7.54558,0.000425217
96.0,7.54479,548.617,569.341,570.883,7.54463,-0.000524941
108.0,7.5451,549.277,591.241,592.755,7.5451,-5.51683e-05
120.0,7.54709,549.937,613.089,614.575,7.54633,0.00117458
132.0,7.54385,550.597,634.884,636.342,7.54404,-0.00111563
144.0,7.54681,551.257,656.627,658.057,7.54699,0.00183411
156.0,7.5436,551.917,678.319,679.72,7.54407,-0.00108598
168.0,7.54363,552.577,699.958,701.332,7.54504,-0.000116071
180.0,7.54383,553.237,721.546,722.892,7.54383,-0.00132611
192.0,7.547,553.897,743.082,744.4,7.547,0.00184385
204.0,7.54628,554.557,764.567,765.858,7.54715,0.00199397
216.0,7.54956,555.217,786.001,787.264,7.54859,0.00343425
228.0,7.54483,555.876,807.384,808.62,7.54553,0.000374773
240.0,7.54614,556.536,828.716,829.924,7.54614,0.000985359
252.0,7.54819,557.196,849.998,851.179,7.54785,0.0026961
264.0,7.54606,557.856,871.23,872.383,7.54606,0.000907122
276.0,7.54387,558.516,892.411,893.537,7.54516,8.32139e-06
288.0,7.54378,559.176,913.542,914.641,7.54378,-0.00137039
300.0,7.54631,559.836,934.624,935.695,7.54631,0.00116094
312.0,7.54661,560.496,955.656,956.7,7.54623,0.00108243
324.0,7.5461,561.156,976.638,977.655,7.5461,0.000953986
336.0,7.54665,561.816,997.571,998.562,7.54667,0.0015256
348.0,7.54434,562.476,1018.45,1019.42,7.54458,-0.000562702
360.0,7.54679,563.136,1039.29,1040.23,7.54587,0.000728974
372.0,7.54694,563.796,1060.08,1060.99,7.54647,0.00133073
384.0,7.54395,564.456,1080.81,1081.7,7.54534,0.000202618
396.0,7.54405,565.116,1101.5,1102.36,7.54405,-0.00108547
408.0,7.54563,565.776,1122.14,1122.97,7.545,-0.00013361
420.0,7.54489,566.436,1142.74,1143.54,7.54455,-0.000581729
432.0,7.54702,567.096,1163.28,1164.06,7.54542,0.000290089
444.0,7.54589,567.756,1183.78,1184.53,7.54613,0.00100188
456.0,7.54539,568.416,1204.23,1204.95,7.5449,-0.000226265
468.0,7.54629,569.075,1224.63,1225.33,7.54662,0.00149562
480.0,7.54452,569.735,1244.99,1245.66,7.54452,-0.000602382
492.0,7.54416,570.395,1265.29,1265.94,7.54511,-1.04182e-05
504.0,7.54301,571.055,1285.55,1286.17,7.54301,-0.0021085
516.0,7.54554,571.715,1305.77,1306.36,7.54544,0.000323223
528.0,7.5466,572.375,1325.94,1326.5,7.54602,0.000904972
540.0,7.54311,573.035,1346.06,1346.6,7.54479,-0.000323175
552.0,7.54634,573.695,1366.13,1366.65,7.54495,-0.000161225
564.0,7.54479,574.355,1386.16,1386.65,7.54479,-0.00031923
576.0,7.54607,575.015,1406.14,1406.61,7.54607,0.000962692
588.0,7.5444,575.675,1426.08,1426.52,7.54494,-0.000165419
600.0,7.54381,576.335,1445.97,1446.38,7.54418,-0.000923572
612.0,7.54285,576.995,1465.82,1466.2,7.5443,-0.000801878
624.0,7.54408,577.655,1485.62,1485.98,7.5435,-0.0016003
636.0,7.54445,578.315,1505.37,1505.71,7.54465,-0.000448852
648.0,7.54153,578.975,1525.08,1525.39,7.54192,-0.00317741
660.0,7.54716,579.635,1544.75,1545.03,7.54623,0.00113387
672.0,7.54556,580.295,1564.37,1564.63,7.54496,-0.000134813
684.0,7.54549,580.955,1583.94,1584.18,7.54562,0.000526461
696.0,7.54434,581.614,1603.47,1603.68,7.54454,-0.000552281
708.0,7.54535,582.274,1622.96,1623.15,7.54535,0.000258941
720.0,7.54264,582.934,1642.4,1642.56,7.54341,-0.00167982
732.0,7.54364,583.594,1661.8,1661.94,7.54358,-0.00150877
744.0,7.54628,584.254,1681.16,1681.27,7.54598,0.000892056
756.0,7.54456,584.914,1700.47,1700.55,7.54443,-0.000657165
768.0,7.54459,585.574,1719.74,1719.8,7.54459,-0.000496472
780.0,7.54347,586.234,1738.96,1739,7.54387,-0.00121587
792.0,7.54315,586.894,1758.14,1758.15,7.54315,-0.00193536
804.0,7.5459,587.554,1777.28,1777.27,7.5454,0.000315074
816.0,7.54363,588.214,1796.38,1796.34,7.54363,-0.00145458
828.0,7.54471,588.874,1815.43,1815.37,7.54443,-0.00065441
840.0,7.54402,589.534,1834.44,1834.35,7.54402,-0.00106436
852.0,7.54551,590.194,1853.41,1853.29,7.54538,0.000295537
864.0,7.54527,590.854,1872.33,1872.2,7.54527,0.000185441
876.0,7.54376,591.514,1891.21,1891.05,7.54376,-0.00132466
888.0,7.54441,592.174,1910.05,1909.87,7.54532,0.000235167
900.0,7.54448,592.834,1928.85,1928.64,7.54448,-0.000605052
912.0,7.5433,593.494,1947.61,1947.38,7.54348,-0.00160538
924.0,7.54683,594.154,1966.33,1966.07,7.54568,0.000594113
936.0,7.5425,594.813,1985,1984.72,7.54338,-0.0017064
948.0,7.5445,595.473,2003.63,2003.33,7.5445,-0.00058698
960.0,7.54344,596.133,2022.22,2021.89,7.54344,-0.00164763
972.0,7.5451,596.793,2040.77,2040.42,7.54477,-0.000318425
984.0,7.54518,597.453,2059.28,2058.91,7.54461,-0.000479268
996.0,7.54592,598.113,2077.75,2077.35,7.54562,0.000529804
1008.0,7.54463,598.773,2096.18,2095.75,7.54455,-0.000541208
1020.0,7.54495,599.433,2114.56,2114.12,7.54495,-0.000142346
1032.0,7.54523,600.093,2132.91,2132.44,7.54403,-0.00106359
1044.0,7.54344,600.753,2151.22,2150.72,7.54344,-0.00165493
1056.0,7.54322,601.413,2169.48,2168.96,7.54322,-0.00187645
1068.0,7.54274,602.073,2187.71,2187.17,7.54297,-0.00212816
1080.0,7.5435,602.733,2205.89,2205.33,7.54394,-0.00115998
1092.0,7.54389,603.393,2224.04,2223.45,7.54436,-0.000741894
1104.0,7.5442,604.053,2242.15,2241.54,7.5442,-0.00090391
1116.0,7.54441,604.713,2260.21,2259.58,7.54516,5.39163e-05
1128.0,7.54334,605.373,2278.24,2277.58,7.5437,-0.00140832
1140.0,7.54518,606.033,2296.23,2295.55,7.54528,0.00016933
1152.0,7.54306,606.693,2314.18,2313.47,7.54395,-0.00116303
1164.0,7.54229,607.353,2332.09,2331.36,7.5443,-0.000815502
1176.0,7.54508,608.012,2349.96,2349.21,7.54466,-0.000458053
1188.0,7.54304,608.672,2367.79,2367.02,7.54361,-0.00151069
1200.0,7.54346,609.332,2385.59,2384.79,7.54455,-0.000573549
1212.0,7.54501,609.992,2403.34,2402.52,7.54538,0.000253507
1224.0,7.54273,610.652,2421.06,2420.22,7.5439,-0.00122949
1236.0,7.54453,611.312,2438.74,2437.87,7.54453,-0.000602701
1248.0,7.54493,611.972,2456.38,2455.49,7.54493,-0.000206057
1260.0,7.54371,612.632,2473.98,2473.07,7.54371,-0.00142952
1272.0,7.54393,613.292,2491.55,2490.61,7.54493,-0.000213146
1284.0,7.54519,613.952,2509.07,2508.12,7.54496,-0.000186974
1296.0,7.54544,614.612,2526.56,2525.59,7.54492,-0.000230974
1308.0,7.54345,615.272,2544.02,2543.01,7.54371,-0.00144504
1320.0,7.54509,615.932,2561.43,2560.41,7.54509,-6.92491e-05
1332.0,7.54226,616.592,2578.81,2577.76,7.54264,-0.00252346
1344.0,7.54458,617.252,2596.15,2595.08,7.54401,-0.00115783
1356.0,7.54418,617.912,2613.45,2612.36,7.54503,-0.000142325
1368.0,7.54356,618.572,2630.72,2629.6,7.54352,-0.00165698
1380.0,7.54314,619.232,2647.95,2646.81,7.54419,-0.000991854
1392.0,7.54484,619.892,2665.14,2663.98,7.54499,-0.000196868
1404.0,7.54423,620.551,2682.29,2681.12,7.54309,-0.00210191
1416.0,7.54504,621.211,2699.41,2698.21,7.54405,-0.00114712
1428.0,7.5432,621.871,2716.5,2715.27,7.5429,-0.00230248
1440.0,7.54398,622.531,2733.54,2732.3,7.54402,-0.00118808
1452.0,7.54206,623.191,2750.56,2749.29,7.54233,-0.00288378
1464.0,7.54543,623.851,2767.53,2766.24,7.54469,-0.000529693
1476.0,7.54245,624.511,2784.47,2783.16,7.54248,-0.0027458
1488.0,7.5455,625.171,2801.37,2800.04,7.54435,-0.000882171
1500.0,7.54468,625.831,2818.24,2816.89,7.54468,-0.000558674
1512.0,7.54307,626.491,2835.07,2833.7,7.54339,-0.00185533
1524.0,7.54279,627.151,2851.87,2850.47,7.54294,-0.00231223
1536.0,7.54332,627.811,2868.63,2867.21,7.54358,-0.00167936
1548.0,7.54316,628.471,2885.36,2883.92,7.54316,-0.00210664
1560.0,7.54345,629.131,2902.05,2900.59,7.54345,-0.00182416
1572.0,7.54531,629.791,2918.7,2917.22,7.54531,2.80513e-05
1584.0,7.54491,630.451,2935.32,2933.82,7.54426,-0.0010299
1596.0,7.54434,631.111,2951.91,2950.38,7.54434,-0.000958012
1608.0,7.54434,631.771,2968.46,2966.92,7.54355,-0.00175627
1620.0,7.54585,632.431,2984.98,2983.41,7.54515,-0.000164759
1632.0,7.54264,633.091,3001.46,2999.87,7.543,-0.00232345
1644.0,7.54549,633.75,3017.91,3016.3,7.54497,-0.000362382
1656.0,7.54382,634.41,3034.33,3032.69,7.54408,-0.00126144
1668.0,7.54484,635.07,3050.71,3049.05,7.54484,-0.000510654
1680.0,7.54286,635.73,3067.05,3065.38,7.54329,-0.00206992
1692.0,7.54578,636.39,3083.36,3081.67,7.54447,-0.000899335
1704.0,7.54338,637.05,3099.64,3097.93,7.54338,-0.00199893
1716.0,7.54372,637.71,3115.89,3114.15,7.54381,-0.00157865
1728.0,7.54474,638.37,3132.1,3130.34,7.54474,-0.000658576
1740.0,7.54448,639.03,3148.28,3146.5,7.54448,-0.000928667
1752.0,7.54632,639.69,3164.42,3162.62,7.54571,0.00029107
1764.0,7.54361,640.35,3180.53,3178.71,7.54351,-0.00191926
1776.0,7.544,641.01,3196.61,3194.77,7.544,-0.00143983
1788.0,7.54289,641.67,3212.65,3210.79,7.54296,-0.00249064
1800.0,7.54344,642.33,3228.67,3226.78,7.5436,-0.0018617
1812.0,7.54572,642.99,3244.65,3242.74,7.54572,0.000247047
1824.0,7.54289,643.65,3260.59,3258.67,7.54397,-0.00151437
1836.0,7.54353,644.31,3276.51,3274.56,7.54353,-0.00196601
1848.0,7.54297,644.97,3292.39,3290.42,7.5442,-0.00130785
1860.0,7.54388,645.63,3308.23,3306.25,7.54403,-0.00148982
1872.0,7.54509,646.29,3324.05,3322.05,7.54502,-0.000511959
1884.0,7.54782,646.949,3339.83,3337.81,7.54719,0.00164579
1896.0,7.54552,647.609,3355.59,3353.54,7.54604,0.000483598
1908.0,7.54725,648.269,3371.31,3369.24,7.54759,0.00202153
1920.0,7.55188,648.929,3386.99,3384.91,7.55076,0.00517985
1932.0,7.5498,649.589,3402.65,3400.54,7.5498,0.00420875
1944.0,7.55172,650.249,3418.27,3416.15,7.55095,0.00534814
1956.0,7.55149,650.909,3433.87,3431.72,7.55164,0.00602823
1968.0,7.55144,651.569,3449.43,3447.26,7.55144,0.00581917
1980.0,7.55307,652.229,3464.96,3462.77,7.55272,0.00709093
1992.0,7.55307,652.889,3480.45,3478.25,7.55307,0.00743367
2004.0,7.55489,653.549,3495.92,3493.69,7.55489,0.00924765
2016.0,7.55378,654.209,3511.36,3509.11,7.55472,0.009073
2028.0,7.55492,654.869,3526.76,3524.49,7.55492,0.0092698
2040.0,7.55879,655.529,3542.13,3539.85,7.55836,0.012708
2047.0,7.55489,655.914,3551.09,3548.79,7.55489,0.00923775