File: data/processed/processed_data/2024-09-03/2024-09-03_glycinepowder_n_y_y_solid_1000_0_20.csv
Pixels #,Intensity (a.u.),Wavelength (nm),Raman shift (cm-1),Raman shift (cm-1) adjusted,Filtered Intensity (a.u.),Baselined Filtered Intensity (a.u.)
0.0,0.00256851,543.337,392.223,393.994,0.000727186,0.000723563
13.0,0.00119226,544.052,416.409,418.148,0.00119226,0.00118864
26.0,0.00153961,544.767,440.532,442.24,0.00150073,0.00149711
39.0,0.00114967,545.482,464.591,466.268,0.00120796,0.00120434
52.0,0.000594176,546.197,488.587,490.233,0.000972246,0.000968624
65.0,0.0101792,546.912,512.521,514.136,0.00908241,0.00907879
78.0,0.0107927,547.627,536.392,537.976,0.0107927,0.0107891
91.0,0.00982688,548.342,560.2,561.754,0.00982688,0.00982326
104.0,0.00406496,549.057,583.947,585.47,0.00406496,0.00406134
117.0,0.0024021,549.772,607.632,609.125,0.00260122,0.0025976
130.0,0.00184359,550.487,631.255,632.718,0.00184359,0.00183997
143.0,0.00252254,551.202,654.818,656.25,0.0023776,0.00237398
156.0,0.000435828,551.917,678.319,679.72,0.00114855,0.00114493
169.0,0.00452798,552.632,701.759,703.13,0.004006,0.00400239
182.0,0.00424303,553.347,725.139,726.48,0.00596686,0.00596325
195.0,0.0106092,554.062,748.458,749.769,0.0114771,0.0114735
208.0,0.0202037,554.777,771.717,772.999,0.0204778,0.0204742
221.0,0.0311062,555.491,794.917,796.168,0.0311062,0.0311026
234.0,0.0506745,556.206,818.057,819.278,0.0506745,0.0506709
247.0,0.0635971,556.921,841.137,842.329,0.0635971,0.0635935
260.0,0.0544857,557.636,864.158,865.321,0.0535674,0.0535638
273.0,0.0778358,558.351,887.12,888.253,0.0754904,0.0754868
286.0,0.00858476,559.066,910.024,911.127,0.00858476,0.00858116
299.0,0.00439539,559.781,932.869,933.943,0.00412379,0.00412019
312.0,0.00120929,560.496,955.656,956.7,0.00143395,0.00143035
325.0,0.002723,561.211,978.384,979.4,0.002723,0.0027194
338.0,0.00598226,561.926,1001.06,1002.04,0.00439944,0.00439585
351.0,0.0103749,562.641,1023.67,1024.63,0.0103749,0.0103713
364.0,0.00735763,563.356,1046.22,1047.15,0.00735763,0.00735404
377.0,0.00386164,564.071,1068.72,1069.62,0.00386164,0.00385805
390.0,0.00406967,564.786,1091.16,1092.03,0.00389651,0.00389292
403.0,0.00354721,565.501,1113.55,1114.39,0.00354721,0.00354362
416.0,0.00299931,566.216,1135.88,1136.69,0.00311436,0.00311078
429.0,0.00483637,566.931,1158.15,1158.93,0.00444903,0.00444545
442.0,0.0070222,567.646,1180.37,1181.12,0.00527502,0.00527144
455.0,0.00474714,568.361,1202.53,1203.25,0.00547462,0.00547104
468.0,0.00618999,569.075,1224.63,1225.33,0.00552146,0.00551788
481.0,0.00154009,569.79,1246.68,1247.35,0.000944165,0.000940587
494.0,0.00552798,570.505,1268.67,1269.31,0.00330764,0.00330406
507.0,0.00288416,571.22,1290.61,1291.22,0.00288416,0.00288058
520.0,0.0246506,571.935,1312.5,1313.08,0.0246506,0.024647
533.0,0.0151876,572.65,1334.32,1334.88,0.0151876,0.015184
546.0,0.00206916,573.365,1356.1,1356.63,0.000865926,0.000862354
559.0,0.00407871,574.08,1377.82,1378.32,0.00330243,0.00329886
572.0,0.0148922,574.795,1399.49,1399.96,0.0148922,0.0148886
585.0,0.00621698,575.51,1421.1,1421.54,0.00621698,0.00621341
598.0,0.00781206,576.225,1442.66,1443.07,0.00727058,0.00726701
611.0,0.00410552,576.94,1464.16,1464.55,0.00410552,0.00410195
624.0,0.00107194,577.655,1485.62,1485.98,0.00107194,0.00106837
637.0,0.0083229,578.37,1507.01,1507.35,0.0083229,0.00831933
650.0,0.00425082,579.085,1528.36,1528.67,0.00337895,0.00337538
663.0,0.00112755,579.8,1549.65,1549.93,0.00150673,0.00150317
676.0,0.0119265,580.515,1570.9,1571.15,0.00761527,0.00761171
689.0,0.00036856,581.23,1592.09,1592.31,0.000455863,0.000452301
702.0,0.00414794,581.944,1613.22,1613.42,0.0020648,0.00206124
715.0,0.00437287,582.659,1634.31,1634.48,0.00400475,0.00400119
728.0,0.00389089,583.374,1655.34,1655.48,0.00386018,0.00385663
741.0,0.00468315,584.089,1676.32,1676.44,0.00418746,0.00418391
754.0,0.00110132,584.804,1697.25,1697.34,0.00110132,0.00109777
767.0,0.00291491,585.519,1718.13,1718.2,0.00235525,0.0023517
780.0,0.000353844,586.234,1738.96,1739,0.00240759,0.00240405
793.0,0.0,586.949,1759.74,1759.75,0.000961175,0.000957634
806.0,0.000730922,587.664,1780.47,1780.45,0.000730922,0.000727384
819.0,0.0,588.379,1801.14,1801.1,0.000354009,0.000350475
832.0,0.00259024,589.094,1821.77,1821.7,0.00259024,0.00258671
845.0,0.00471279,589.809,1842.35,1842.25,0.00457503,0.0045715
858.0,0.00346174,590.524,1862.87,1862.75,0.00234973,0.00234621
871.0,0.00461932,591.239,1883.35,1883.2,0.0036598,0.00365628
884.0,0.00662557,591.954,1903.78,1903.6,0.006465,0.00646148
897.0,0.00130272,592.669,1924.16,1923.96,0.00255511,0.0025516
910.0,0.0021617,593.384,1944.49,1944.26,0.00145065,0.00144714
923.0,0.000958989,594.099,1964.77,1964.51,0.00144345,0.00143995
936.0,0.0024524,594.813,1985,1984.72,0.00124632,0.00124282
949.0,0.0,595.528,2005.18,2004.88,0.000513069,0.000509572
962.0,0.00228878,596.243,2025.32,2024.98,0.00228878,0.00228529
975.0,0.00101006,596.958,2045.4,2045.05,0.00128908,0.00128559
988.0,0.0,597.673,2065.44,2065.06,0.000360113,0.000356627
1001.0,0.000119977,598.388,2085.43,2085.02,0.00139193,0.00138845
1014.0,0.000577149,599.103,2105.38,2104.94,0.000577149,0.000573669
1027.0,0.000724874,599.818,2125.27,2124.81,0.00148176,0.00147828
1040.0,0.000835578,600.533,2145.12,2144.63,0.000418707,0.000415234
1053.0,0.00291502,601.248,2164.92,2164.41,0.001937,0.00193353
1066.0,0.0,601.963,2184.67,2184.14,2.327e-05,1.98041e-05
1079.0,0.0056631,602.678,2204.38,2203.82,0.00294265,0.00293919
1092.0,0.0,603.393,2224.04,2223.45,0.000589532,0.000586073
1105.0,0.0026134,604.108,2243.65,2243.04,0.00134571,0.00134225
1118.0,0.00534777,604.823,2263.22,2262.58,0.00485263,0.00484918
1131.0,0.0,605.538,2282.74,2282.08,0.00026894,0.000265491
1144.0,0.00151657,606.253,2302.22,2301.53,0.0018593,0.00185585
1157.0,0.00375654,606.968,2321.65,2320.93,0.00375654,0.0037531
1170.0,0.000436566,607.682,2341.03,2340.29,0.00174326,0.00173982
1183.0,0.0,608.397,2360.37,2359.6,0.0,-3.43763e-06
1196.0,0.00247317,609.112,2379.66,2378.87,0.0021591,0.00215566
1209.0,0.00248206,609.827,2398.91,2398.09,0.000121812,0.000118379
1222.0,0.00425235,610.542,2418.11,2417.27,0.00402103,0.0040176
1235.0,0.000571367,611.257,2437.27,2436.4,0.00189213,0.0018887
1248.0,0.00425552,611.972,2456.38,2455.49,0.00233345,0.00233003
1261.0,0.00104982,612.687,2475.45,2474.53,0.00104982,0.0010464
1274.0,0.0,613.402,2494.47,2493.53,0.000707226,0.000703806
1287.0,0.00441196,614.117,2513.45,2512.49,0.0028064,0.00280298
1300.0,0.000732639,614.832,2532.39,2531.4,0.000732639,0.000729223
1313.0,0.00216306,615.547,2551.28,2550.27,0.000613127,0.000609714
1326.0,0.00529825,616.262,2570.12,2569.09,0.00439766,0.00439425
1339.0,0.00472046,616.977,2588.93,2587.87,0.00120758,0.00120417
1352.0,0.00345941,617.692,2607.69,2606.6,0.00345941,0.003456
1365.0,0.0,618.407,2626.4,2625.3,0.0,-3.40613e-06
1378.0,0.0,619.122,2645.08,2643.95,0.000698176,0.000694771
1391.0,0.000423056,619.837,2663.71,2662.55,0.000193885,0.000190481
1404.0,0.00113969,620.551,2682.29,2681.12,0.00113969,0.00113629
1417.0,0.0,621.266,2700.84,2699.64,0.000368718,0.000365316
1430.0,0.00240289,621.981,2719.34,2718.11,0.00240289,0.00239949
1443.0,0.00189371,622.696,2737.8,2736.55,0.00149661,0.00149321
1456.0,0.00269281,623.411,2756.22,2754.94,0.00149552,0.00149212
1469.0,0.000939193,624.126,2774.59,2773.29,0.000939193,0.000935794
1482.0,0.00111675,624.841,2792.93,2791.6,0.00111675,0.00111335
1495.0,0.0,625.556,2811.22,2809.87,0.0,-3.39828e-06
1508.0,0.000975212,626.271,2829.47,2828.1,0.00039408,0.000390682
1521.0,0.0016902,626.986,2847.67,2846.28,0.000795758,0.00079236
1534.0,0.0,627.701,2865.84,2864.42,0.0,-3.3976e-06
1547.0,0.0014992,628.416,2883.96,2882.53,0.0014992,0.0014958
1560.0,0.00260363,629.131,2902.05,2900.59,0.00260363,0.00260023
1573.0,0.00326121,629.846,2920.09,2918.6,0.00294015,0.00293675
1586.0,0.0,630.561,2938.09,2936.58,0.000174032,0.000170635
1599.0,0.00167921,631.276,2956.05,2954.52,0.00232174,0.00231834
1612.0,0.0403908,631.991,2973.97,2972.42,0.0403908,0.0403874
1625.0,0.0,632.706,2991.85,2990.27,0.0,-3.39727e-06
1638.0,0.0162926,633.421,3009.69,3008.09,0.0158896,0.0158862
1651.0,0.0,634.135,3027.49,3025.87,0.0,-3.39776e-06
1664.0,0.000408694,634.85,3045.25,3043.6,0.000408694,0.000405296
1677.0,0.0,635.565,3062.97,3061.3,0.000854758,0.000851359
1690.0,0.000977109,636.28,3080.65,3078.96,0.000977109,0.000973709
1703.0,5.92277e-05,636.995,3098.29,3096.57,5.92277e-05,5.5827e-05
1716.0,0.0,637.71,3115.89,3114.15,0.0,-3.40111e-06
1729.0,0.00240123,638.425,3133.45,3131.69,0.00133429,0.00133089
1742.0,0.0,639.14,3150.97,3149.19,0.000566862,0.00056346
1755.0,7.71457e-05,639.855,3168.45,3166.65,7.71457e-05,7.37426e-05
1768.0,0.0,640.57,3185.9,3184.07,0.000246899,0.000243496
1781.0,0.000874633,641.285,3203.3,3201.45,0.000874633,0.00087123
1794.0,0.00230391,642,3220.66,3218.79,0.00141248,0.00140908
1807.0,0.000553012,642.715,3237.99,3236.1,0.0,-3.40212e-06
1820.0,0.00098497,643.43,3255.28,3253.36,0.00098497,0.000981568
1833.0,0.00280412,644.145,3272.53,3270.59,0.000913567,0.000910165
1846.0,0.00117619,644.86,3289.74,3287.78,0.00102867,0.00102527
1859.0,0.0,645.575,3306.92,3304.93,5.49325e-05,5.15298e-05
1872.0,0.00227651,646.29,3324.05,3322.05,0.00133607,0.00133267
1885.0,0.0,647.004,3341.15,3339.12,0.00045728,0.000453878
1898.0,0.00117675,647.719,3358.21,3356.16,0.000790519,0.000787118
1911.0,0.00273442,648.434,3375.23,3373.16,0.00164061,0.00163721
1924.0,0.00213917,649.149,3392.22,3390.12,0.00144032,0.00143692
1937.0,0.00109042,649.864,3409.16,3407.05,0.000930553,0.000927156
1950.0,0.000579509,650.579,3426.07,3423.94,0.000482782,0.000479386
1963.0,0.0,651.294,3442.95,3440.79,0.000183871,0.000180475
1976.0,0.0,652.009,3459.78,3457.6,0.000931939,0.000928544
1989.0,0.000926821,652.724,3476.58,3474.38,0.000926821,0.000923426
2002.0,0.000114729,653.439,3493.34,3491.12,0.000120165,0.000116771
2015.0,0.000343996,654.154,3510.07,3507.83,0.000343996,0.000340602
2028.0,0.0,654.869,3526.76,3524.49,0.000112535,0.000109141
2041.0,0.00365365,655.584,3543.41,3541.12,0.002689,0.00268561
2047.0,0.0,655.914,3551.09,3548.79,0.0,-3.39348e-06