File: data/processed/processed_data/2024-09-03/2024-09-03_aluminumfoil2cmaway_n_y_y_solid_1000_0_5.csv
Pixels #,Intensity (a.u.),Wavelength (nm),Raman shift (cm-1),Raman shift (cm-1) adjusted,Filtered Intensity (a.u.),Baselined Filtered Intensity (a.u.)
0.0,0.000576704,543.337,392.223,393.994,0.000576704,0.000424408
13.0,0.00240374,544.052,416.409,418.148,0.00240374,0.00225144
26.0,0.00227201,544.767,440.532,442.24,0.00227201,0.00211971
39.0,0.0027997,545.482,464.591,466.268,0.00353829,0.00338599
52.0,0.0032722,546.197,488.587,490.233,0.00240537,0.00225307
65.0,0.00333209,546.912,512.521,514.136,0.00167524,0.00152294
78.0,0.000952675,547.627,536.392,537.976,0.000952675,0.000800379
91.0,0.00307466,548.342,560.2,561.754,0.00328053,0.00312823
104.0,0.00145137,549.057,583.947,585.47,0.00145137,0.00129908
117.0,0.003329,549.772,607.632,609.125,0.00319072,0.00303842
130.0,0.00392821,550.487,631.255,632.718,0.00305929,0.00290699
143.0,0.00355592,551.202,654.818,656.25,0.00427878,0.00412648
156.0,0.00176899,551.917,678.319,679.72,0.00169486,0.00154256
169.0,0.00245908,552.632,701.759,703.13,0.00245908,0.00230678
182.0,0.0,553.347,725.139,726.48,0.000706006,0.000553697
195.0,0.00140733,554.062,748.458,749.769,0.00160667,0.00145436
208.0,0.00247694,554.777,771.717,772.999,0.00241196,0.00225964
221.0,0.00299964,555.491,794.917,796.168,0.00336359,0.00321127
234.0,0.00327444,556.206,818.057,819.278,0.00284649,0.00269416
247.0,0.00508996,556.921,841.137,842.329,0.00508996,0.00493763
260.0,0.00526722,557.636,864.158,865.321,0.00393299,0.00378065
273.0,0.00436252,558.351,887.12,888.253,0.00436252,0.00421018
286.0,0.00356774,559.066,910.024,911.127,0.00291645,0.0027641
299.0,0.00507101,559.781,932.869,933.943,0.00493722,0.00478486
312.0,0.00502019,560.496,955.656,956.7,0.00322633,0.00307397
325.0,0.00391775,561.211,978.384,979.4,0.0043676,0.00421523
338.0,0.0036145,561.926,1001.06,1002.04,0.0036145,0.00346213
351.0,0.00479209,562.641,1023.67,1024.63,0.00418653,0.00403415
364.0,0.00233419,563.356,1046.22,1047.15,0.00312208,0.0029697
377.0,0.00429529,564.071,1068.72,1069.62,0.00429529,0.0041429
390.0,0.00370198,564.786,1091.16,1092.03,0.0039657,0.00381331
403.0,0.00508622,565.501,1113.55,1114.39,0.0049349,0.0047825
416.0,0.00107184,566.216,1135.88,1136.69,0.00107184,0.000919438
429.0,0.00434818,566.931,1158.15,1158.93,0.00434818,0.00419577
442.0,0.00395326,567.646,1180.37,1181.12,0.00395326,0.00380085
455.0,0.0043458,568.361,1202.53,1203.25,0.00501235,0.00485993
468.0,0.00370386,569.075,1224.63,1225.33,0.00369041,0.00353799
481.0,0.00524417,569.79,1246.68,1247.35,0.0045618,0.00440937
494.0,0.00445609,570.505,1268.67,1269.31,0.00333242,0.00317999
507.0,0.00144334,571.22,1290.61,1291.22,0.00144334,0.0012909
520.0,0.00451602,571.935,1312.5,1313.08,0.00451602,0.00436358
533.0,0.00484229,572.65,1334.32,1334.88,0.0039866,0.00383416
546.0,0.00690213,573.365,1356.1,1356.63,0.00588518,0.00573274
559.0,0.00181479,574.08,1377.82,1378.32,0.00314726,0.00299481
572.0,0.00158608,574.795,1399.49,1399.96,0.00229336,0.00214091
585.0,0.00337081,575.51,1421.1,1421.54,0.0037603,0.00360785
598.0,0.00416787,576.225,1442.66,1443.07,0.00373258,0.00358013
611.0,0.00426931,576.94,1464.16,1464.55,0.00459974,0.00444728
624.0,0.00424583,577.655,1485.62,1485.98,0.00400888,0.00385642
637.0,0.00250744,578.37,1507.01,1507.35,0.00215738,0.00200492
650.0,0.00404386,579.085,1528.36,1528.67,0.00376813,0.00361566
663.0,0.00341066,579.8,1549.65,1549.93,0.00354695,0.00339448
676.0,0.00362303,580.515,1570.9,1571.15,0.00279802,0.00264555
689.0,0.00288043,581.23,1592.09,1592.31,0.00297708,0.0028246
702.0,0.00470768,581.944,1613.22,1613.42,0.00411356,0.00396108
715.0,0.00412424,582.659,1634.31,1634.48,0.00401035,0.00385787
728.0,0.00315653,583.374,1655.34,1655.48,0.00315653,0.00300404
741.0,0.00236912,584.089,1676.32,1676.44,0.00302738,0.00287489
754.0,0.00208858,584.804,1697.25,1697.34,0.0028842,0.00273171
767.0,0.00170763,585.519,1718.13,1718.2,0.00231927,0.00216678
780.0,0.0025202,586.234,1738.96,1739,0.00304948,0.00289698
793.0,0.00224354,586.949,1759.74,1759.75,0.00238172,0.00222922
806.0,0.00324282,587.664,1780.47,1780.45,0.00303695,0.00288445
819.0,0.00298809,588.379,1801.14,1801.1,0.0030994,0.00294689
832.0,0.00197069,589.094,1821.77,1821.7,0.00197069,0.00181818
845.0,0.00471339,589.809,1842.35,1842.25,0.00395731,0.0038048
858.0,0.00432524,590.524,1862.87,1862.75,0.00404301,0.00389049
871.0,0.00476748,591.239,1883.35,1883.2,0.00476748,0.00461496
884.0,0.00297303,591.954,1903.78,1903.6,0.00410761,0.00395508
897.0,0.00383091,592.669,1924.16,1923.96,0.00434838,0.00419585
910.0,0.00443883,593.384,1944.49,1944.26,0.00319241,0.00303988
923.0,0.00283451,594.099,1964.77,1964.51,0.00327578,0.00312324
936.0,0.002027,594.813,1985,1984.72,0.00139588,0.00124334
949.0,0.00295629,595.528,2005.18,2004.88,0.00414592,0.00399337
962.0,0.00377296,596.243,2025.32,2024.98,0.00377296,0.00362041
975.0,0.00341194,596.958,2045.4,2045.05,0.00239012,0.00223757
988.0,0.00310006,597.673,2065.44,2065.06,0.00355579,0.00340323
1001.0,0.00361554,598.388,2085.43,2085.02,0.00361554,0.00346298
1014.0,0.0046898,599.103,2105.38,2104.94,0.00343155,0.00327899
1027.0,0.00317034,599.818,2125.27,2124.81,0.00291356,0.00276099
1040.0,0.00414452,600.533,2145.12,2144.63,0.00327129,0.00311872
1053.0,0.00328792,601.248,2164.92,2164.41,0.00328792,0.00313534
1066.0,0.00331055,601.963,2184.67,2184.14,0.00331055,0.00315797
1079.0,0.00502725,602.678,2204.38,2203.82,0.00403203,0.00387945
1092.0,0.00228253,603.393,2224.04,2223.45,0.00397261,0.00382002
1105.0,0.00299276,604.108,2243.65,2243.04,0.00299276,0.00284017
1118.0,0.00317228,604.823,2263.22,2262.58,0.003245,0.0030924
1131.0,0.00377326,605.538,2282.74,2282.08,0.00301995,0.00286735
1144.0,0.00495133,606.253,2302.22,2301.53,0.00534458,0.00519198
1157.0,0.00396597,606.968,2321.65,2320.93,0.00408156,0.00392895
1170.0,0.00245601,607.682,2341.03,2340.29,0.00289835,0.00274574
1183.0,0.00216705,608.397,2360.37,2359.6,0.00227372,0.0021211
1196.0,0.00436866,609.112,2379.66,2378.87,0.00436866,0.00421604
1209.0,0.00431833,609.827,2398.91,2398.09,0.00423878,0.00408616
1222.0,0.00360303,610.542,2418.11,2417.27,0.00310238,0.00294976
1235.0,0.00456351,611.257,2437.27,2436.4,0.00377315,0.00362053
1248.0,0.00572876,611.972,2456.38,2455.49,0.00441035,0.00425773
1261.0,0.00212428,612.687,2475.45,2474.53,0.00214563,0.00199302
1274.0,0.00318017,613.402,2494.47,2493.53,0.00412927,0.00397666
1287.0,0.00559436,614.117,2513.45,2512.49,0.00549066,0.00533805
1300.0,0.00360201,614.832,2532.39,2531.4,0.00360201,0.0034494
1313.0,0.00317852,615.547,2551.28,2550.27,0.00317852,0.00302591
1326.0,0.00502276,616.262,2570.12,2569.09,0.00399438,0.00384177
1339.0,0.00627517,616.977,2588.93,2587.87,0.00532902,0.00517642
1352.0,0.00394804,617.692,2607.69,2606.6,0.00370977,0.00355717
1365.0,0.0033973,618.407,2626.4,2625.3,0.00315648,0.00300388
1378.0,0.00346323,619.122,2645.08,2643.95,0.00346323,0.00331063
1391.0,0.00227159,619.837,2663.71,2662.55,0.00203693,0.00188433
1404.0,0.0025271,620.551,2682.29,2681.12,0.00178821,0.00163561
1417.0,0.00271869,621.266,2700.84,2699.64,0.00271869,0.00256609
1430.0,0.00177517,621.981,2719.34,2718.11,0.00177517,0.00162257
1443.0,0.00535159,622.696,2737.8,2736.55,0.00454875,0.00439615
1456.0,0.00317549,623.411,2756.22,2754.94,0.00260831,0.00245571
1469.0,0.00108802,624.126,2774.59,2773.29,0.00161879,0.00146619
1482.0,0.00330372,624.841,2792.93,2791.6,0.00344996,0.00329736
1495.0,0.00356639,625.556,2811.22,2809.87,0.00356639,0.00341379
1508.0,0.00304483,626.271,2829.47,2828.1,0.00240038,0.00224778
1521.0,0.00287431,626.986,2847.67,2846.28,0.00287431,0.00272171
1534.0,0.00112691,627.701,2865.84,2864.42,0.00175307,0.00160047
1547.0,0.00201853,628.416,2883.96,2882.53,0.00201853,0.00186593
1560.0,0.00412786,629.131,2902.05,2900.59,0.00401243,0.00385983
1573.0,0.00359121,629.846,2920.09,2918.6,0.00346968,0.00331708
1586.0,0.00252658,630.561,2938.09,2936.58,0.0019251,0.0017725
1599.0,0.00270321,631.276,2956.05,2954.52,0.00270321,0.00255061
1612.0,0.00129984,631.991,2973.97,2972.42,0.00131483,0.00116223
1625.0,0.00244469,632.706,2991.85,2990.27,0.002314,0.0021614
1638.0,0.00423344,633.421,3009.69,3008.09,0.0032144,0.0030618
1651.0,0.00344458,634.135,3027.49,3025.87,0.00310863,0.00295603
1664.0,0.00291689,634.85,3045.25,3043.6,0.00321317,0.00306057
1677.0,0.00281638,635.565,3062.97,3061.3,0.00281638,0.00266379
1690.0,0.00213898,636.28,3080.65,3078.96,0.00213898,0.00198639
1703.0,0.00178493,636.995,3098.29,3096.57,0.00182743,0.00167484
1716.0,0.0019958,637.71,3115.89,3114.15,0.0019958,0.00184321
1729.0,0.00188,638.425,3133.45,3131.69,0.00188,0.00172741
1742.0,0.000179774,639.14,3150.97,3149.19,0.00126662,0.00111403
1755.0,0.00335621,639.855,3168.45,3166.65,0.00335621,0.00320362
1768.0,0.0024522,640.57,3185.9,3184.07,0.00297067,0.00281808
1781.0,0.00300062,641.285,3203.3,3201.45,0.00300062,0.00284803
1794.0,0.00271576,642,3220.66,3218.79,0.00141279,0.0012602
1807.0,0.00156711,642.715,3237.99,3236.1,0.00156711,0.00141452
1820.0,0.00343039,643.43,3255.28,3253.36,0.00328109,0.00312851
1833.0,0.0018175,644.145,3272.53,3270.59,0.0018357,0.00168312
1846.0,0.00517893,644.86,3289.74,3287.78,0.00455626,0.00440368
1859.0,0.0026555,645.575,3306.92,3304.93,0.0026555,0.00250292
1872.0,0.000761458,646.29,3324.05,3322.05,0.00162198,0.0014694
1885.0,0.00187629,647.004,3341.15,3339.12,0.00261471,0.00246214
1898.0,0.00332053,647.719,3358.21,3356.16,0.00332053,0.00316796
1911.0,0.0029275,648.434,3375.23,3373.16,0.00313497,0.0029824
1924.0,0.0053176,649.149,3392.22,3390.12,0.00499114,0.00483857
1937.0,0.00465056,649.864,3409.16,3407.05,0.00501989,0.00486732
1950.0,0.00426333,650.579,3426.07,3423.94,0.00426333,0.00411076
1963.0,0.00513337,651.294,3442.95,3440.79,0.00641515,0.00626258
1976.0,0.00403491,652.009,3459.78,3457.6,0.00459646,0.00444389
1989.0,0.00787603,652.724,3476.58,3474.38,0.00815986,0.00800729
2002.0,0.00531257,653.439,3493.34,3491.12,0.00560554,0.00545297
2015.0,0.00681406,654.154,3510.07,3507.83,0.00681406,0.00666149
2028.0,0.00545901,654.869,3526.76,3524.49,0.00562992,0.00547735
2041.0,0.0109064,655.584,3543.41,3541.12,0.0104364,0.0102838
2047.0,0.00784541,655.914,3551.09,3548.79,0.00750058,0.00734801