File: data/processed/processed_data/2024-09-03/2024-09-03_glycinepowder_n_n_y_solid_10000_0_5.csv
Pixels #,Intensity (a.u.),Wavelength (nm),Raman shift (cm-1),Raman shift (cm-1) adjusted,Filtered Intensity (a.u.),Baselined Filtered Intensity (a.u.)
0.0,0.795529,543.337,392.223,393.994,0.795258,-0.0108126
12.0,0.795719,543.997,414.551,416.293,0.795719,-0.0103523
24.0,0.793847,544.657,436.825,438.537,0.794217,-0.0118565
36.0,0.795928,545.317,459.044,460.728,0.795941,-0.0101361
48.0,0.797916,545.977,481.21,482.866,0.797916,-0.00816613
60.0,0.813355,546.637,503.323,504.95,0.813355,0.00726683
72.0,0.83604,547.297,525.382,526.981,0.83604,0.0299469
84.0,0.858217,547.957,547.388,548.958,0.858217,0.0521228
96.0,0.864208,548.617,569.341,570.883,0.863384,0.0572898
108.0,0.864007,549.277,591.241,592.755,0.864007,0.0579128
120.0,0.86475,549.937,613.089,614.575,0.864461,0.0583668
132.0,0.863044,550.597,634.884,636.342,0.863044,0.0569498
144.0,0.866466,551.257,656.627,658.057,0.866186,0.0600918
156.0,0.872644,551.917,678.319,679.72,0.872644,0.0665498
168.0,0.886273,552.577,699.958,701.332,0.886273,0.0801788
180.0,0.907277,553.237,721.546,722.892,0.907277,0.101183
192.0,0.943898,553.897,743.082,744.4,0.943898,0.137804
204.0,0.998603,554.557,764.567,765.858,0.998603,0.192509
216.0,1.08525,555.217,786.001,787.264,1.08525,0.279156
228.0,1.20157,555.876,807.384,808.62,1.20157,0.395476
240.0,1.34111,556.536,828.716,829.924,1.34111,0.535016
252.0,1.46933,557.196,849.998,851.179,1.46933,0.663236
264.0,1.56292,557.856,871.23,872.383,1.56292,0.756826
276.0,1.65861,558.516,892.411,893.537,1.658,0.851906
288.0,1.63714,559.176,913.542,914.641,1.63734,0.831246
300.0,1.64192,559.836,934.624,935.695,1.64269,0.836596
312.0,1.64384,560.496,955.656,956.7,1.64333,0.837236
324.0,1.64863,561.156,976.638,977.655,1.64931,0.843216
336.0,1.65989,561.816,997.571,998.562,1.65946,0.853366
348.0,1.67764,562.476,1018.45,1019.42,1.67764,0.871546
360.0,1.70221,563.136,1039.29,1040.23,1.70221,0.896116
372.0,1.70812,563.796,1060.08,1060.99,1.70812,0.902026
384.0,1.71282,564.456,1080.81,1081.7,1.71282,0.906726
396.0,1.7218,565.116,1101.5,1102.36,1.7218,0.915706
408.0,1.72357,565.776,1122.14,1122.97,1.72386,0.917766
420.0,1.73563,566.436,1142.74,1143.54,1.73449,0.928396
432.0,1.73457,567.096,1163.28,1164.06,1.73457,0.928476
444.0,1.7427,567.756,1183.78,1184.53,1.7427,0.936606
456.0,1.74998,568.416,1204.23,1204.95,1.74998,0.943886
468.0,1.75754,569.075,1224.63,1225.33,1.75768,0.951586
480.0,1.76129,569.735,1244.99,1245.66,1.76129,0.955196
492.0,1.76825,570.395,1265.29,1265.94,1.76729,0.961196
504.0,1.77571,571.055,1285.55,1286.17,1.77571,0.969616
516.0,1.80105,571.715,1305.77,1306.36,1.80105,0.994956
528.0,1.86002,572.375,1325.94,1326.5,1.86002,1.05393
540.0,1.79457,573.035,1346.06,1346.6,1.79485,0.988756
552.0,1.79947,573.695,1366.13,1366.65,1.79886,0.992766
564.0,1.81155,574.355,1386.16,1386.65,1.81155,1.00546
576.0,1.84113,575.015,1406.14,1406.61,1.84113,1.03504
588.0,1.82128,575.675,1426.08,1426.52,1.82224,1.01615
600.0,1.82943,576.335,1445.97,1446.38,1.82892,1.02283
612.0,1.82088,576.995,1465.82,1466.2,1.82088,1.01479
624.0,1.82114,577.655,1485.62,1485.98,1.82114,1.01505
636.0,1.83417,578.315,1505.37,1505.71,1.83399,1.0279
648.0,1.83292,578.975,1525.08,1525.39,1.83292,1.02683
660.0,1.83453,579.635,1544.75,1545.03,1.83453,1.02844
672.0,1.85011,580.295,1564.37,1564.63,1.85011,1.04402
684.0,1.83645,580.955,1583.94,1584.18,1.83645,1.03036
696.0,1.83599,581.614,1603.47,1603.68,1.83599,1.0299
708.0,1.83809,582.274,1622.96,1623.15,1.83749,1.0314
720.0,1.83419,582.934,1642.4,1642.56,1.83419,1.0281
732.0,1.83911,583.594,1661.8,1661.94,1.83932,1.03323
744.0,1.83522,584.254,1681.16,1681.27,1.83651,1.03042
756.0,1.83816,584.914,1700.47,1700.55,1.83651,1.03042
768.0,1.83865,585.574,1719.74,1719.8,1.83865,1.03256
780.0,1.83462,586.234,1738.96,1739,1.83531,1.02922
792.0,1.83693,586.894,1758.14,1758.15,1.83693,1.03084
804.0,1.83446,587.554,1777.28,1777.27,1.83524,1.02915
816.0,1.83295,588.214,1796.38,1796.34,1.83343,1.02734
828.0,1.83448,588.874,1815.43,1815.37,1.83496,1.02887
840.0,1.83544,589.534,1834.44,1834.35,1.83543,1.02934
852.0,1.83618,590.194,1853.41,1853.29,1.83532,1.02923
864.0,1.83591,590.854,1872.33,1872.2,1.83591,1.02982
876.0,1.83337,591.514,1891.21,1891.05,1.83363,1.02754
888.0,1.83419,592.174,1910.05,1909.87,1.83365,1.02756
900.0,1.83019,592.834,1928.85,1928.64,1.83019,1.0241
912.0,1.8264,593.494,1947.61,1947.38,1.82648,1.02039
924.0,1.82165,594.154,1966.33,1966.07,1.82165,1.01556
936.0,1.81535,594.813,1985,1984.72,1.81535,1.00926
948.0,1.81131,595.473,2003.63,2003.33,1.81167,1.00558
960.0,1.80644,596.133,2022.22,2021.89,1.80644,1.00035
972.0,1.80243,596.793,2040.77,2040.42,1.80111,0.995016
984.0,1.79284,597.453,2059.28,2058.91,1.79329,0.987196
996.0,1.78715,598.113,2077.75,2077.35,1.78685,0.980756
1008.0,1.78092,598.773,2096.18,2095.75,1.78026,0.974166
1020.0,1.77602,599.433,2114.56,2114.12,1.77499,0.968896
1032.0,1.7706,600.093,2132.91,2132.44,1.7706,0.964506
1044.0,1.76318,600.753,2151.22,2150.72,1.76318,0.957086
1056.0,1.75519,601.413,2169.48,2168.96,1.7558,0.949706
1068.0,1.75149,602.073,2187.71,2187.17,1.74969,0.943596
1080.0,1.74546,602.733,2205.89,2205.33,1.74541,0.939316
1092.0,1.74199,603.393,2224.04,2223.45,1.74199,0.935896
1104.0,1.73797,604.053,2242.15,2241.54,1.73797,0.931876
1116.0,1.73303,604.713,2260.21,2259.58,1.73392,0.927826
1128.0,1.72688,605.373,2278.24,2277.58,1.72688,0.920786
1140.0,1.72233,606.033,2296.23,2295.55,1.72233,0.916236
1152.0,1.7175,606.693,2314.18,2313.47,1.71705,0.910956
1164.0,1.71584,607.353,2332.09,2331.36,1.71495,0.908856
1176.0,1.70803,608.012,2349.96,2349.21,1.70804,0.901946
1188.0,1.70355,608.672,2367.79,2367.02,1.70355,0.897456
1200.0,1.69621,609.332,2385.59,2384.79,1.6964,0.890306
1212.0,1.69107,609.992,2403.34,2402.52,1.69197,0.885876
1224.0,1.68748,610.652,2421.06,2420.22,1.68748,0.881386
1236.0,1.68086,611.312,2438.74,2437.87,1.68016,0.874066
1248.0,1.67632,611.972,2456.38,2455.49,1.67632,0.870226
1260.0,1.66859,612.632,2473.98,2473.07,1.66859,0.862496
1272.0,1.66117,613.292,2491.55,2490.61,1.66117,0.855076
1284.0,1.65444,613.952,2509.07,2508.12,1.65511,0.849016
1296.0,1.64788,614.612,2526.56,2525.59,1.64788,0.841786
1308.0,1.63646,615.272,2544.02,2543.01,1.63797,0.831876
1320.0,1.63077,615.932,2561.43,2560.41,1.63077,0.824676
1332.0,1.62176,616.592,2578.81,2577.76,1.62176,0.815666
1344.0,1.61817,617.252,2596.15,2595.08,1.61659,0.810496
1356.0,1.60866,617.912,2613.45,2612.36,1.60866,0.802566
1368.0,1.59786,618.572,2630.72,2629.6,1.59786,0.791766
1380.0,1.59193,619.232,2647.95,2646.81,1.59193,0.785836
1392.0,1.58331,619.892,2665.14,2663.98,1.58331,0.777216
1404.0,1.57578,620.551,2682.29,2681.12,1.57578,0.769686
1416.0,1.57088,621.211,2699.41,2698.21,1.57,0.763906
1428.0,1.5625,621.871,2716.5,2715.27,1.5625,0.756406
1440.0,1.55798,622.531,2733.54,2732.3,1.55902,0.752926
1452.0,1.54991,623.191,2750.56,2749.29,1.55065,0.744556
1464.0,1.54681,623.851,2767.53,2766.24,1.54618,0.740086
1476.0,1.53959,624.511,2784.47,2783.16,1.53959,0.733496
1488.0,1.53263,625.171,2801.37,2800.04,1.533,0.726906
1500.0,1.52783,625.831,2818.24,2816.89,1.52783,0.721736
1512.0,1.52199,626.491,2835.07,2833.7,1.52199,0.715896
1524.0,1.51446,627.151,2851.87,2850.47,1.51493,0.708836
1536.0,1.5118,627.811,2868.63,2867.21,1.51101,0.704916
1548.0,1.50583,628.471,2885.36,2883.92,1.50583,0.699736
1560.0,1.50177,629.131,2902.05,2900.59,1.50133,0.695236
1572.0,1.49212,629.791,2918.7,2917.22,1.49197,0.685876
1584.0,1.48691,630.451,2935.32,2933.82,1.48691,0.680816
1596.0,1.48861,631.111,2951.91,2950.38,1.48861,0.682516
1608.0,1.53543,631.771,2968.46,2966.92,1.53543,0.729336
1620.0,1.48051,632.431,2984.98,2983.41,1.48051,0.674416
1632.0,1.47067,633.091,3001.46,2999.87,1.47022,0.664126
1644.0,1.44001,633.75,3017.91,3016.3,1.44001,0.633916
1656.0,1.41787,634.41,3034.33,3032.69,1.41787,0.611776
1668.0,1.40692,635.07,3050.71,3049.05,1.40692,0.600826
1680.0,1.3946,635.73,3067.05,3065.38,1.3946,0.588506
1692.0,1.38527,636.39,3083.36,3081.67,1.38527,0.579176
1704.0,1.3761,637.05,3099.64,3097.93,1.37619,0.570096
1716.0,1.3697,637.71,3115.89,3114.15,1.3697,0.563606
1728.0,1.36437,638.37,3132.1,3130.34,1.36482,0.558726
1740.0,1.35843,639.03,3148.28,3146.5,1.35843,0.552336
1752.0,1.3451,639.69,3164.42,3162.62,1.3451,0.539006
1764.0,1.33272,640.35,3180.53,3178.71,1.33272,0.526626
1776.0,1.32237,641.01,3196.61,3194.77,1.32237,0.516276
1788.0,1.31253,641.67,3212.65,3210.79,1.31253,0.506436
1800.0,1.30322,642.33,3228.67,3226.78,1.30322,0.497126
1812.0,1.29493,642.99,3244.65,3242.74,1.29493,0.488836
1824.0,1.28631,643.65,3260.59,3258.67,1.28631,0.480216
1836.0,1.27614,644.31,3276.51,3274.56,1.27669,0.470596
1848.0,1.2689,644.97,3292.39,3290.42,1.2689,0.462806
1860.0,1.26095,645.63,3308.23,3306.25,1.26048,0.454386
1872.0,1.25535,646.29,3324.05,3322.05,1.25535,0.449256
1884.0,1.24419,646.949,3339.83,3337.81,1.24557,0.439476
1896.0,1.2386,647.609,3355.59,3353.54,1.23947,0.433376
1908.0,1.23114,648.269,3371.31,3369.24,1.23114,0.425046
1920.0,1.22668,648.929,3386.99,3384.91,1.22646,0.420366
1932.0,1.21834,649.589,3402.65,3400.54,1.21834,0.412246
1944.0,1.20724,650.249,3418.27,3416.15,1.20745,0.401356
1956.0,1.20069,650.909,3433.87,3431.72,1.20069,0.394596
1968.0,1.19408,651.569,3449.43,3447.26,1.19408,0.387986
1980.0,1.18688,652.229,3464.96,3462.77,1.18688,0.380786
1992.0,1.18084,652.889,3480.45,3478.25,1.1814,0.375306
2004.0,1.17459,653.549,3495.92,3493.69,1.17424,0.368146
2016.0,1.16583,654.209,3511.36,3509.11,1.16673,0.360636
2028.0,1.15732,654.869,3526.76,3524.49,1.15841,0.352316
2040.0,1.15426,655.529,3542.13,3539.85,1.15426,0.348166
2047.0,1.15084,655.914,3551.09,3548.79,1.15084,0.344746