File: data/processed/processed_data/2024-09-03/2024-09-03_aluminumfoil0.5cmaway_n_y_y_solid_1000_0_5.csv
Pixels #,Intensity (a.u.),Wavelength (nm),Raman shift (cm-1),Raman shift (cm-1) adjusted,Filtered Intensity (a.u.),Baselined Filtered Intensity (a.u.)
0.0,0.00121515,543.337,392.223,393.994,0.00121515,0.00115308
13.0,0.000996863,544.052,416.409,418.148,0.00167304,0.00161097
26.0,0.0015691,544.767,440.532,442.24,0.0015691,0.00150703
39.0,0.001838,545.482,464.591,466.268,0.001838,0.00177593
52.0,0.00184466,546.197,488.587,490.233,0.00127223,0.00121016
65.0,0.0017758,546.912,512.521,514.136,0.000779473,0.000717405
78.0,0.00136607,547.627,536.392,537.976,0.00268386,0.00262179
91.0,0.00285873,548.342,560.2,561.754,0.00355997,0.00349791
104.0,0.00215685,549.057,583.947,585.47,0.00263838,0.00257632
117.0,0.000861544,549.772,607.632,609.125,0.00198483,0.00192277
130.0,0.00229569,550.487,631.255,632.718,0.00229569,0.00223363
143.0,0.00351346,551.202,654.818,656.25,0.00260175,0.00253969
156.0,0.0,551.917,678.319,679.72,0.000785712,0.000723657
169.0,0.0019294,552.632,701.759,703.13,0.00168537,0.00162331
182.0,6.21646e-05,553.347,725.139,726.48,0.000784123,0.000722065
195.0,0.00140827,554.062,748.458,749.769,0.00174142,0.00167936
208.0,4.9266e-05,554.777,771.717,772.999,0.00120835,0.00114629
221.0,0.00413457,555.491,794.917,796.168,0.00413457,0.0040725
234.0,0.00832207,556.206,818.057,819.278,0.00789306,0.00783099
247.0,0.0103427,556.921,841.137,842.329,0.0104215,0.0103594
260.0,0.00877596,557.636,864.158,865.321,0.00877596,0.00871388
273.0,0.00615284,558.351,887.12,888.253,0.00615284,0.00609075
286.0,0.00675899,559.066,910.024,911.127,0.00671183,0.00664974
299.0,0.00677788,559.781,932.869,933.943,0.00677788,0.00671579
312.0,0.00491239,560.496,955.656,956.7,0.00419909,0.00413699
325.0,0.00300705,561.211,978.384,979.4,0.00300705,0.00294495
338.0,0.00313799,561.926,1001.06,1002.04,0.00176893,0.00170682
351.0,0.00323814,562.641,1023.67,1024.63,0.00323814,0.00317603
364.0,0.00556286,563.356,1046.22,1047.15,0.00482,0.00475788
377.0,0.00467856,564.071,1068.72,1069.62,0.00429862,0.0042365
390.0,0.00285195,564.786,1091.16,1092.03,0.00259626,0.00253414
403.0,0.00162,565.501,1113.55,1114.39,0.00162,0.00155787
416.0,0.000702099,566.216,1135.88,1136.69,0.000702099,0.000639967
429.0,0.00406994,566.931,1158.15,1158.93,0.00406994,0.0040078
442.0,0.00327547,567.646,1180.37,1181.12,0.00307031,0.00300816
455.0,0.00281584,568.361,1202.53,1203.25,0.0039509,0.00388875
468.0,0.00410063,569.075,1224.63,1225.33,0.00316216,0.0031
481.0,0.00514193,569.79,1246.68,1247.35,0.00467291,0.00461074
494.0,0.00522805,570.505,1268.67,1269.31,0.00310546,0.00304329
507.0,0.0,571.22,1290.61,1291.22,9.80392e-05,3.58602e-05
520.0,0.00368193,571.935,1312.5,1313.08,0.00384555,0.00378336
533.0,0.00436766,572.65,1334.32,1334.88,0.00342539,0.0033632
546.0,0.00700229,573.365,1356.1,1356.63,0.00657234,0.00651014
559.0,0.00197456,574.08,1377.82,1378.32,0.00309894,0.00303673
572.0,0.00354366,574.795,1399.49,1399.96,0.00354366,0.00348145
585.0,0.00355486,575.51,1421.1,1421.54,0.00259274,0.00253052
598.0,0.000978414,576.225,1442.66,1443.07,0.000978414,0.00091619
611.0,0.0016537,576.94,1464.16,1464.55,0.00161916,0.00155693
624.0,0.00316138,577.655,1485.62,1485.98,0.00307553,0.0030133
637.0,0.00237841,578.37,1507.01,1507.35,0.00223771,0.00217548
650.0,0.00236708,579.085,1528.36,1528.67,0.00173908,0.00167685
663.0,0.0023316,579.8,1549.65,1549.93,0.0023316,0.00226938
676.0,0.00194183,580.515,1570.9,1571.15,0.00186762,0.0018054
689.0,0.00134124,581.23,1592.09,1592.31,0.00229901,0.00223679
702.0,0.00162375,581.944,1613.22,1613.42,0.000892678,0.000830461
715.0,0.0030952,582.659,1634.31,1634.48,0.00354575,0.00348354
728.0,0.00422295,583.374,1655.34,1655.48,0.00342187,0.00335966
741.0,0.00411087,584.089,1676.32,1676.44,0.0021132,0.00205099
754.0,0.00159793,584.804,1697.25,1697.34,0.00159793,0.00153573
767.0,0.00256801,585.519,1718.13,1718.2,0.00270396,0.00264176
780.0,0.0,586.234,1738.96,1739,0.000195315,0.000133116
793.0,0.0031578,586.949,1759.74,1759.75,0.0031578,0.0030956
806.0,0.00207308,587.664,1780.47,1780.45,0.00207308,0.00201089
819.0,0.00149787,588.379,1801.14,1801.1,0.00275753,0.00269534
832.0,0.00230938,589.094,1821.77,1821.7,0.00230938,0.0022472
845.0,0.000732744,589.809,1842.35,1842.25,0.000732744,0.000670566
858.0,0.00385149,590.524,1862.87,1862.75,0.00357896,0.00351679
871.0,0.00403711,591.239,1883.35,1883.2,0.00403711,0.00397494
884.0,0.00161048,591.954,1903.78,1903.6,0.00184822,0.00178606
897.0,0.0,592.669,1924.16,1923.96,0.00169047,0.00162831
910.0,0.00189812,593.384,1944.49,1944.26,0.0019406,0.00187845
923.0,0.00233032,594.099,1964.77,1964.51,0.00286676,0.00280461
936.0,0.000351166,594.813,1985,1984.72,0.00217384,0.0021117
949.0,0.00129832,595.528,2005.18,2004.88,0.0015979,0.00153576
962.0,0.000943169,596.243,2025.32,2024.98,0.002078,0.00201586
975.0,0.00219828,596.958,2045.4,2045.05,0.00237846,0.00231632
988.0,0.000824727,597.673,2065.44,2065.06,0.00223762,0.00217548
1001.0,0.00244332,598.388,2085.43,2085.02,0.00244332,0.00238119
1014.0,0.00185257,599.103,2105.38,2104.94,0.00122299,0.00116086
1027.0,0.00242971,599.818,2125.27,2124.81,0.00242971,0.00236758
1040.0,0.00298419,600.533,2145.12,2144.63,0.0029655,0.00290337
1053.0,0.00341823,601.248,2164.92,2164.41,0.00333819,0.00327605
1066.0,0.00135366,601.963,2184.67,2184.14,0.00156185,0.00149971
1079.0,0.00345519,602.678,2204.38,2203.82,0.00312418,0.00306204
1092.0,0.0,603.393,2224.04,2223.45,0.000952829,0.000890685
1105.0,0.00288781,604.108,2243.65,2243.04,0.00288781,0.00282566
1118.0,0.0018891,604.823,2263.22,2262.58,0.0018891,0.00182695
1131.0,0.00231175,605.538,2282.74,2282.08,0.00231175,0.00224959
1144.0,0.0025076,606.253,2302.22,2301.53,0.00239433,0.00233217
1157.0,0.00264259,606.968,2321.65,2320.93,0.00313622,0.00307405
1170.0,0.00099865,607.682,2341.03,2340.29,0.00191234,0.00185017
1183.0,0.00227232,608.397,2360.37,2359.6,0.00221786,0.00215568
1196.0,0.00227699,609.112,2379.66,2378.87,0.00234215,0.00227997
1209.0,0.00315163,609.827,2398.91,2398.09,0.00315163,0.00308944
1222.0,0.00362246,610.542,2418.11,2417.27,0.00362246,0.00356027
1235.0,0.00246351,611.257,2437.27,2436.4,0.00337349,0.00331129
1248.0,0.00271532,611.972,2456.38,2455.49,0.00182766,0.00176546
1261.0,0.000408559,612.687,2475.45,2474.53,0.00107967,0.00101747
1274.0,0.0019507,613.402,2494.47,2493.53,0.0019507,0.00188849
1287.0,0.00307438,614.117,2513.45,2512.49,0.00307438,0.00301217
1300.0,0.00201319,614.832,2532.39,2531.4,0.00197057,0.00190836
1313.0,0.000354398,615.547,2551.28,2550.27,0.00116818,0.00110597
1326.0,0.00442203,616.262,2570.12,2569.09,0.00284494,0.00278273
1339.0,0.00395618,616.977,2588.93,2587.87,0.00395618,0.00389397
1352.0,0.00310375,617.692,2607.69,2606.6,0.00363593,0.00357372
1365.0,0.00214319,618.407,2626.4,2625.3,0.00281372,0.00275151
1378.0,0.00282587,619.122,2645.08,2643.95,0.00291279,0.00285058
1391.0,0.00245956,619.837,2663.71,2662.55,0.00266072,0.00259851
1404.0,0.00330073,620.551,2682.29,2681.12,0.00289642,0.00283421
1417.0,0.00342568,621.266,2700.84,2699.64,0.00275712,0.00269491
1430.0,0.00256084,621.981,2719.34,2718.11,0.00170111,0.0016389
1443.0,0.00350496,622.696,2737.8,2736.55,0.00350415,0.00344194
1456.0,0.00236185,623.411,2756.22,2754.94,0.00232096,0.00225875
1469.0,0.000883274,624.126,2774.59,2773.29,0.000723382,0.000661167
1482.0,0.00236065,624.841,2792.93,2791.6,0.0026116,0.00254938
1495.0,0.00189381,625.556,2811.22,2809.87,0.00270298,0.00264076
1508.0,0.00175102,626.271,2829.47,2828.1,0.000906972,0.000844749
1521.0,0.00271833,626.986,2847.67,2846.28,0.0023671,0.00230487
1534.0,0.000222048,627.701,2865.84,2864.42,0.00112722,0.00106499
1547.0,0.00120704,628.416,2883.96,2882.53,0.00192703,0.0018648
1560.0,0.00290964,629.131,2902.05,2900.59,0.00341397,0.00335173
1573.0,0.00292439,629.846,2920.09,2918.6,0.00292439,0.00286215
1586.0,0.00231401,630.561,2938.09,2936.58,0.00231401,0.00225176
1599.0,0.0021146,631.276,2956.05,2954.52,0.0021146,0.00205235
1612.0,0.00138,631.991,2973.97,2972.42,0.00188532,0.00182306
1625.0,0.00167616,632.706,2991.85,2990.27,0.00167616,0.0016139
1638.0,0.000758117,633.421,3009.69,3008.09,0.00108526,0.00102299
1651.0,0.00104547,634.135,3027.49,3025.87,0.00101309,0.000950813
1664.0,0.00315217,634.85,3045.25,3043.6,0.00315217,0.00308989
1677.0,0.0024679,635.565,3062.97,3061.3,0.0024679,0.00240561
1690.0,0.00246856,636.28,3080.65,3078.96,0.00246856,0.00240627
1703.0,0.000406754,636.995,3098.29,3096.57,0.000578098,0.000515797
1716.0,0.00137927,637.71,3115.89,3114.15,0.00130117,0.00123886
1729.0,0.00304438,638.425,3133.45,3131.69,0.00303611,0.00297379
1742.0,0.0,639.14,3150.97,3149.19,0.000285344,0.000223021
1755.0,0.00223888,639.855,3168.45,3166.65,0.0031209,0.00305857
1768.0,0.000757704,640.57,3185.9,3184.07,0.000757704,0.000695371
1781.0,0.0027757,641.285,3203.3,3201.45,0.00303023,0.00296789
1794.0,0.00461691,642,3220.66,3218.79,0.0031354,0.00307306
1807.0,0.00388765,642.715,3237.99,3236.1,0.00388765,0.0038253
1820.0,0.0021848,643.43,3255.28,3253.36,0.00295615,0.0028938
1833.0,0.00149696,644.145,3272.53,3270.59,0.00231635,0.00225399
1846.0,0.00314471,644.86,3289.74,3287.78,0.00327557,0.00321321
1859.0,0.000782983,645.575,3306.92,3304.93,0.000782983,0.000720618
1872.0,0.00180371,646.29,3324.05,3322.05,0.00180371,0.00174134
1885.0,0.000934363,647.004,3341.15,3339.12,0.00169453,0.00163216
1898.0,0.00026201,647.719,3358.21,3356.16,0.00124913,0.00118676
1911.0,0.00278229,648.434,3375.23,3373.16,0.00278229,0.00271992
1924.0,0.00265216,649.149,3392.22,3390.12,0.00250312,0.00244075
1937.0,0.00247294,649.864,3409.16,3407.05,0.00247294,0.00241057
1950.0,0.00316999,650.579,3426.07,3423.94,0.00234997,0.0022876
1963.0,0.0,651.294,3442.95,3440.79,0.001182,0.00111963
1976.0,0.000799054,652.009,3459.78,3457.6,0.0012849,0.00122253
1989.0,0.00350832,652.724,3476.58,3474.38,0.00350832,0.00344595
2002.0,0.00382033,653.439,3493.34,3491.12,0.00356629,0.00350392
2015.0,0.00231782,654.154,3510.07,3507.83,0.00231782,0.00225545
2028.0,0.0017477,654.869,3526.76,3524.49,0.0017477,0.00168533
2041.0,0.00635094,655.584,3543.41,3541.12,0.00607208,0.00600971
2047.0,0.00278049,655.914,3551.09,3548.79,0.00278049,0.00271812