File: data/processed/processed_data/2024-09-03/2024-09-03_aluminumfoil0.5cmaway_n_n_y_solid_1000_0_5.csv
Pixels #,Intensity (a.u.),Wavelength (nm),Raman shift (cm-1),Raman shift (cm-1) adjusted,Filtered Intensity (a.u.),Baselined Filtered Intensity (a.u.)
0.0,7.54709,543.337,392.223,393.994,7.54709,-0.0179834
12.0,7.54764,543.997,414.551,416.293,7.54764,-0.0174348
24.0,7.54861,544.657,436.825,438.537,7.54769,-0.0173886
36.0,7.5473,545.317,459.044,460.728,7.5477,-0.0173851
48.0,7.54801,545.977,481.21,482.866,7.54801,-0.0170839
60.0,7.55042,546.637,503.323,504.95,7.54957,-0.0155352
72.0,7.55138,547.297,525.382,526.981,7.55048,-0.0146389
84.0,7.55083,547.957,547.388,548.958,7.55153,-0.0136047
96.0,7.55185,548.617,569.341,570.883,7.55124,-0.0139126
108.0,7.54994,549.277,591.241,592.755,7.5511,-0.0140724
120.0,7.55477,549.937,613.089,614.575,7.55314,-0.0120542
132.0,7.54908,550.597,634.884,636.342,7.54908,-0.0161379
144.0,7.55127,551.257,656.627,658.057,7.55153,-0.0137138
156.0,7.54846,551.917,678.319,679.72,7.54979,-0.0154817
168.0,7.55011,552.577,699.958,701.332,7.55031,-0.0149918
180.0,7.54948,553.237,721.546,722.892,7.54978,-0.0155539
192.0,7.55526,553.897,743.082,744.4,7.55495,-0.010418
204.0,7.55686,554.557,764.567,765.858,7.55686,-0.00854385
216.0,7.5626,555.217,786.001,787.264,7.56215,-0.00329102
228.0,7.56323,555.876,807.384,808.62,7.56323,-0.00224897
240.0,7.56803,556.536,828.716,829.924,7.56847,0.00295284
252.0,7.5736,557.196,849.998,851.179,7.573,0.00744515
264.0,7.57164,557.856,871.23,872.383,7.57252,0.00692842
276.0,7.57063,558.516,892.411,893.537,7.57063,0.00500264
288.0,7.57254,559.176,913.542,914.641,7.57198,0.00631782
300.0,7.57385,559.836,934.624,935.695,7.57385,0.00815408
312.0,7.57362,560.496,955.656,956.7,7.57277,0.00704152
324.0,7.57364,561.156,976.638,977.655,7.57325,0.00749002
336.0,7.57064,561.816,997.571,998.562,7.57186,0.00606948
348.0,7.57318,562.476,1018.45,1019.42,7.57351,0.00768984
360.0,7.57631,563.136,1039.29,1040.23,7.57602,0.0101713
372.0,7.5762,563.796,1060.08,1060.99,7.57596,0.0100843
384.0,7.57339,564.456,1080.81,1081.7,7.57326,0.00735851
396.0,7.57088,565.116,1101.5,1102.36,7.57091,0.0049839
408.0,7.57301,565.776,1122.14,1122.97,7.57301,0.00706015
420.0,7.57268,566.436,1142.74,1143.54,7.57237,0.00639737
432.0,7.57529,567.096,1163.28,1164.06,7.57529,0.00929548
444.0,7.57302,567.756,1183.78,1184.53,7.57394,0.00792471
456.0,7.57454,568.416,1204.23,1204.95,7.57447,0.00843507
468.0,7.5742,569.075,1224.63,1225.33,7.57328,0.0072266
480.0,7.57444,569.735,1244.99,1245.66,7.57444,0.00836921
492.0,7.57258,570.395,1265.29,1265.94,7.57278,0.00669285
504.0,7.57071,571.055,1285.55,1286.17,7.57071,0.00460744
516.0,7.57044,571.715,1305.77,1306.36,7.57154,0.00542264
528.0,7.57344,572.375,1325.94,1326.5,7.57319,0.00705863
540.0,7.57156,573.035,1346.06,1346.6,7.57243,0.00628552
552.0,7.57345,573.695,1366.13,1366.65,7.57189,0.00573337
564.0,7.5724,574.355,1386.16,1386.65,7.57329,0.00712218
576.0,7.57436,575.015,1406.14,1406.61,7.57382,0.00764195
588.0,7.57246,575.675,1426.08,1426.52,7.57233,0.00614275
600.0,7.57079,576.335,1445.97,1446.38,7.57146,0.00526447
612.0,7.57079,576.995,1465.82,1466.2,7.5723,0.00609705
624.0,7.57394,577.655,1485.62,1485.98,7.57384,0.00763049
636.0,7.57276,578.315,1505.37,1505.71,7.57311,0.00689492
648.0,7.57115,578.975,1525.08,1525.39,7.57262,0.00640029
660.0,7.57411,579.635,1544.75,1545.03,7.57467,0.00844662
672.0,7.57357,580.295,1564.37,1564.63,7.57357,0.00734405
684.0,7.5729,580.955,1583.94,1584.18,7.5729,0.00667245
696.0,7.57347,581.614,1603.47,1603.68,7.57347,0.00724182
708.0,7.57241,582.274,1622.96,1623.15,7.57354,0.00731219
720.0,7.5701,582.934,1642.4,1642.56,7.57015,0.0039236
732.0,7.57208,583.594,1661.8,1661.94,7.57354,0.00731601
744.0,7.57122,584.254,1681.16,1681.27,7.57242,0.00619947
756.0,7.57307,584.914,1700.47,1700.55,7.57298,0.00676384
768.0,7.57278,585.574,1719.74,1719.8,7.57273,0.00651907
780.0,7.56911,586.234,1738.96,1739,7.56964,0.00343519
792.0,7.57217,586.894,1758.14,1758.15,7.57308,0.00688214
804.0,7.57323,587.554,1777.28,1777.27,7.57277,0.00658007
816.0,7.57139,588.214,1796.38,1796.34,7.57212,0.00593888
828.0,7.57379,588.874,1815.43,1815.37,7.57379,0.00761856
840.0,7.5721,589.534,1834.44,1834.35,7.57153,0.00536921
852.0,7.57364,590.194,1853.41,1853.29,7.57364,0.00749065
864.0,7.57451,590.854,1872.33,1872.2,7.57409,0.00795304
876.0,7.57221,591.514,1891.21,1891.05,7.57221,0.00608651
888.0,7.57366,592.174,1910.05,1909.87,7.57294,0.00683089
900.0,7.57283,592.834,1928.85,1928.64,7.57301,0.00691615
912.0,7.57185,593.494,1947.61,1947.38,7.57165,0.00557228
924.0,7.5725,594.154,1966.33,1966.07,7.57246,0.00639922
936.0,7.56981,594.813,1985,1984.72,7.57165,0.00560701
948.0,7.57184,595.473,2003.63,2003.33,7.57089,0.00486572
960.0,7.57122,596.133,2022.22,2021.89,7.57006,0.00405524
972.0,7.5738,596.793,2040.77,2040.42,7.5736,0.00761555
984.0,7.57211,597.453,2059.28,2058.91,7.57195,0.00598674
996.0,7.57358,598.113,2077.75,2077.35,7.57225,0.00630868
1008.0,7.57098,598.773,2096.18,2095.75,7.57098,0.00506141
1020.0,7.57339,599.433,2114.56,2114.12,7.57216,0.0062648
1032.0,7.5707,600.093,2132.91,2132.44,7.5707,0.00482893
1044.0,7.5696,600.753,2151.22,2150.72,7.5696,0.00375374
1056.0,7.57278,601.413,2169.48,2168.96,7.57093,0.00510918
1068.0,7.56924,602.073,2187.71,2187.17,7.56924,0.00344528
1080.0,7.57082,602.733,2205.89,2205.33,7.57071,0.00494198
1092.0,7.56678,603.393,2224.04,2223.45,7.56846,0.00271937
1104.0,7.57133,604.053,2242.15,2241.54,7.57133,0.00561734
1116.0,7.57108,604.713,2260.21,2259.58,7.57123,0.00554595
1128.0,7.57043,605.373,2278.24,2277.58,7.57043,0.0047752
1140.0,7.56879,606.033,2296.23,2295.55,7.5702,0.00457502
1152.0,7.56736,606.693,2314.18,2313.47,7.56873,0.00313541
1164.0,7.56753,607.353,2332.09,2331.36,7.56888,0.0033163
1176.0,7.56862,608.012,2349.96,2349.21,7.56862,0.0030877
1188.0,7.56545,608.672,2367.79,2367.02,7.5675,0.00199952
1200.0,7.56916,609.332,2385.59,2384.79,7.56916,0.00369167
1212.0,7.56959,609.992,2403.34,2402.52,7.57051,0.00507426
1224.0,7.5652,610.652,2421.06,2420.22,7.56667,0.00126731
1236.0,7.5688,611.312,2438.74,2437.87,7.5688,0.00343066
1248.0,7.56795,611.972,2456.38,2455.49,7.56707,0.00173439
1260.0,7.56615,612.632,2473.98,2473.07,7.56615,0.000848362
1272.0,7.56693,613.292,2491.55,2490.61,7.56693,0.00166257
1284.0,7.56743,613.952,2509.07,2508.12,7.56743,0.00219701
1296.0,7.56698,614.612,2526.56,2525.59,7.56735,0.00215171
1308.0,7.56453,615.272,2544.02,2543.01,7.56652,0.00135669
1320.0,7.56673,615.932,2561.43,2560.41,7.56652,0.00139181
1332.0,7.56528,616.592,2578.81,2577.76,7.56528,0.000187082
1344.0,7.56612,617.252,2596.15,2595.08,7.56599,0.000932476
1356.0,7.56699,617.912,2613.45,2612.36,7.56722,0.00219801
1368.0,7.56504,618.572,2630.72,2629.6,7.56522,0.00023373
1380.0,7.56323,619.232,2647.95,2646.81,7.56323,-0.00172065
1392.0,7.56363,619.892,2665.14,2663.98,7.56452,-0.000395147
1404.0,7.56494,620.551,2682.29,2681.12,7.56453,-0.000349514
1416.0,7.56456,621.211,2699.41,2698.21,7.56402,-0.000823912
1428.0,7.56272,621.871,2716.5,2715.27,7.56272,-0.00208842
1440.0,7.56223,622.531,2733.54,2732.3,7.56305,-0.00172316
1452.0,7.56178,623.191,2750.56,2749.29,7.56178,-0.00295804
1464.0,7.56336,623.851,2767.53,2766.24,7.56297,-0.00173321
1476.0,7.56247,624.511,2784.47,2783.16,7.56247,-0.00219874
1488.0,7.56108,625.171,2801.37,2800.04,7.56148,-0.00315464
1500.0,7.56059,625.831,2818.24,2816.89,7.56059,-0.00401088
1512.0,7.56243,626.491,2835.07,2833.7,7.5624,-0.00216759
1524.0,7.56149,627.151,2851.87,2850.47,7.56208,-0.00245475
1536.0,7.56046,627.811,2868.63,2867.21,7.56046,-0.00404229
1548.0,7.56112,628.471,2885.36,2883.92,7.56115,-0.00332026
1560.0,7.56203,629.131,2902.05,2900.59,7.56255,-0.00188868
1572.0,7.56134,629.791,2918.7,2917.22,7.56134,-0.00306748
1584.0,7.56202,630.451,2935.32,2933.82,7.56119,-0.00318676
1596.0,7.56053,631.111,2951.91,2950.38,7.56053,-0.00381655
1608.0,7.55915,631.771,2968.46,2966.92,7.55922,-0.00509689
1620.0,7.56183,632.431,2984.98,2983.41,7.56183,-0.00245781
1632.0,7.55947,633.091,3001.46,2999.87,7.55906,-0.00519923
1644.0,7.56018,633.75,3017.91,3016.3,7.55947,-0.00476131
1656.0,7.55813,634.41,3034.33,3032.69,7.55836,-0.0058441
1668.0,7.5585,635.07,3050.71,3049.05,7.5585,-0.00567765
1680.0,7.56042,635.73,3067.05,3065.38,7.56042,-0.00373188
1692.0,7.55916,636.39,3083.36,3081.67,7.55881,-0.00531689
1704.0,7.55594,637.05,3099.64,3097.93,7.55641,-0.00769279
1716.0,7.55682,637.71,3115.89,3114.15,7.55681,-0.00726964
1728.0,7.55848,638.37,3132.1,3130.34,7.55809,-0.0059675
1740.0,7.55717,639.03,3148.28,3146.5,7.55718,-0.00685628
1752.0,7.55801,639.69,3164.42,3162.62,7.55869,-0.00532604
1764.0,7.55456,640.35,3180.53,3178.71,7.55579,-0.00820672
1776.0,7.55701,641.01,3196.61,3194.77,7.55615,-0.00782859
1788.0,7.55481,641.67,3212.65,3210.79,7.55518,-0.00878164
1800.0,7.55498,642.33,3228.67,3226.78,7.55617,-0.00777585
1812.0,7.55551,642.99,3244.65,3242.74,7.55551,-0.00842113
1824.0,7.55506,643.65,3260.59,3258.67,7.55506,-0.00885759
1836.0,7.55489,644.31,3276.51,3274.56,7.55554,-0.00836521
1848.0,7.5563,644.97,3292.39,3290.42,7.55583,-0.00806407
1860.0,7.55173,645.63,3308.23,3306.25,7.55287,-0.0110142
1872.0,7.55503,646.29,3324.05,3322.05,7.55503,-0.00884577
1884.0,7.5555,646.949,3339.83,3337.81,7.55595,-0.00791862
1896.0,7.55635,647.609,3355.59,3353.54,7.55588,-0.0079827
1908.0,7.55743,648.269,3371.31,3369.24,7.55703,-0.00682788
1920.0,7.55929,648.929,3386.99,3384.91,7.55929,-0.00456397
1932.0,7.55982,649.589,3402.65,3400.54,7.55975,-0.00410092
1944.0,7.55989,650.249,3418.27,3416.15,7.55934,-0.00450861
1956.0,7.56263,650.909,3433.87,3431.72,7.56065,-0.00319696
1968.0,7.56085,651.569,3449.43,3447.26,7.56085,-0.0029959
1980.0,7.5615,652.229,3464.96,3462.77,7.56176,-0.00208539
1992.0,7.56141,652.889,3480.45,3478.25,7.56165,-0.00219528
2004.0,7.56362,653.549,3495.92,3493.69,7.56362,-0.0002254
2016.0,7.56206,654.209,3511.36,3509.11,7.56212,-0.00172548
2028.0,7.5619,654.869,3526.76,3524.49,7.5619,-0.00194555
2040.0,7.56644,655.529,3542.13,3539.85,7.56644,0.00259433
2047.0,7.56323,655.914,3551.09,3548.79,7.56323,-0.000615678