File: data/processed/processed_data/2024-09-03/2024-09-03_aluminumfoil1cmaway_n_y_y_solid_1000_0_5.csv
Pixels #,Intensity (a.u.),Wavelength (nm),Raman shift (cm-1),Raman shift (cm-1) adjusted,Filtered Intensity (a.u.),Baselined Filtered Intensity (a.u.)
0.0,0.00470461,543.337,392.223,393.994,0.00410344,0.00360423
13.0,0.00321863,544.052,416.409,418.148,0.00315452,0.00265531
26.0,0.00426871,544.767,440.532,442.24,0.00459224,0.00409303
39.0,0.00399432,545.482,464.591,466.268,0.0035823,0.00308309
52.0,0.00218184,546.197,488.587,490.233,0.00256632,0.00206711
65.0,0.00212721,546.912,512.521,514.136,0.00185252,0.00135331
78.0,0.0011479,547.627,536.392,537.976,0.00184976,0.00135055
91.0,0.00356221,548.342,560.2,561.754,0.00298842,0.00248921
104.0,0.0047253,549.057,583.947,585.47,0.0047253,0.00422609
117.0,0.00318145,549.772,607.632,609.125,0.00456694,0.00406773
130.0,0.0051533,550.487,631.255,632.718,0.00457953,0.00408033
143.0,0.00578848,551.202,654.818,656.25,0.00561151,0.00511231
156.0,0.00239834,551.917,678.319,679.72,0.00286835,0.00236915
169.0,0.00469679,552.632,701.759,703.13,0.0040711,0.0035719
182.0,0.00381527,553.347,725.139,726.48,0.00381527,0.00331607
195.0,0.00518906,554.062,748.458,749.769,0.00518906,0.00468987
208.0,0.00560155,554.777,771.717,772.999,0.00560155,0.00510236
221.0,0.00486963,555.491,794.917,796.168,0.00478422,0.00428503
234.0,0.00478776,556.206,818.057,819.278,0.00456502,0.00406583
247.0,0.00730606,556.921,841.137,842.329,0.00628985,0.00579066
260.0,0.00545418,557.636,864.158,865.321,0.00482847,0.00432928
273.0,0.0048139,558.351,887.12,888.253,0.0048139,0.00431472
286.0,0.0037769,559.066,910.024,911.127,0.00400574,0.00350656
299.0,0.00562388,559.781,932.869,933.943,0.00511733,0.00461815
312.0,0.00541701,560.496,955.656,956.7,0.00503549,0.00453631
325.0,0.00464253,561.211,978.384,979.4,0.00491104,0.00441186
338.0,0.00547943,561.926,1001.06,1002.04,0.00547943,0.00498025
351.0,0.0050468,562.641,1023.67,1024.63,0.0050468,0.00454763
364.0,0.0051452,563.356,1046.22,1047.15,0.00493474,0.00443557
377.0,0.0052833,564.071,1068.72,1069.62,0.0052833,0.00478413
390.0,0.00389856,564.786,1091.16,1092.03,0.00389856,0.00339939
403.0,0.00455855,565.501,1113.55,1114.39,0.00452511,0.00402594
416.0,0.00235902,566.216,1135.88,1136.69,0.00307321,0.00257405
429.0,0.00307704,566.931,1158.15,1158.93,0.00377584,0.00327668
442.0,0.00492118,567.646,1180.37,1181.12,0.00470464,0.00420548
455.0,0.00340531,568.361,1202.53,1203.25,0.00371958,0.00322042
468.0,0.00510607,569.075,1224.63,1225.33,0.00543878,0.00493962
481.0,0.00473468,569.79,1246.68,1247.35,0.00445101,0.00395185
494.0,0.00525749,570.505,1268.67,1269.31,0.00387204,0.00337289
507.0,0.00261865,571.22,1290.61,1291.22,0.00261865,0.0021195
520.0,0.00590643,571.935,1312.5,1313.08,0.00590643,0.00540728
533.0,0.00547713,572.65,1334.32,1334.88,0.00446096,0.00396182
546.0,0.00712613,573.365,1356.1,1356.63,0.00618297,0.00568383
559.0,0.00238467,574.08,1377.82,1378.32,0.00346517,0.00296604
572.0,0.00375294,574.795,1399.49,1399.96,0.00375294,0.00325381
585.0,0.00588723,575.51,1421.1,1421.54,0.00468804,0.00418892
598.0,0.00337974,576.225,1442.66,1443.07,0.00337974,0.00288062
611.0,0.00317943,576.94,1464.16,1464.55,0.00317943,0.00268032
624.0,0.00290895,577.655,1485.62,1485.98,0.00232597,0.00182686
637.0,0.00347773,578.37,1507.01,1507.35,0.00347773,0.00297863
650.0,0.00346973,579.085,1528.36,1528.67,0.00346973,0.00297063
663.0,0.00384323,579.8,1549.65,1549.93,0.00388003,0.00338094
676.0,0.00430524,580.515,1570.9,1571.15,0.00377099,0.0032719
689.0,0.00358622,581.23,1592.09,1592.31,0.00374167,0.00324259
702.0,0.00410014,581.944,1613.22,1613.42,0.00410014,0.00360107
715.0,0.00339335,582.659,1634.31,1634.48,0.00317352,0.00267445
728.0,0.002653,583.374,1655.34,1655.48,0.00193297,0.00143391
741.0,0.00338975,584.089,1676.32,1676.44,0.00338975,0.0028907
754.0,0.00235951,584.804,1697.25,1697.34,0.00340342,0.00290437
767.0,0.00282162,585.519,1718.13,1718.2,0.00343208,0.00293304
780.0,0.00231021,586.234,1738.96,1739,0.00270979,0.00221076
793.0,0.00197581,586.949,1759.74,1759.75,0.00199708,0.00149805
806.0,0.00415612,587.664,1780.47,1780.45,0.00415612,0.0036571
819.0,0.00312288,588.379,1801.14,1801.1,0.00351372,0.0030147
832.0,0.0018559,589.094,1821.77,1821.7,0.00252751,0.0020285
845.0,0.00271181,589.809,1842.35,1842.25,0.0025868,0.0020878
858.0,0.00473047,590.524,1862.87,1862.75,0.0046024,0.0041034
871.0,0.00419782,591.239,1883.35,1883.2,0.00419782,0.00369883
884.0,0.00242309,591.954,1903.78,1903.6,0.00426039,0.00376141
897.0,0.0044906,592.669,1924.16,1923.96,0.004115,0.00361602
910.0,0.0022215,593.384,1944.49,1944.26,0.00234369,0.00184472
923.0,0.00546702,594.099,1964.77,1964.51,0.00452119,0.00402222
936.0,0.0013638,594.813,1985,1984.72,0.00223978,0.00174082
949.0,0.00394403,595.528,2005.18,2004.88,0.00368169,0.00318274
962.0,0.00147048,596.243,2025.32,2024.98,0.00230645,0.0018075
975.0,0.00378521,596.958,2045.4,2045.05,0.00378521,0.00328627
988.0,0.00259342,597.673,2065.44,2065.06,0.00295986,0.00246092
1001.0,0.00340056,598.388,2085.43,2085.02,0.00340056,0.00290163
1014.0,0.00278251,599.103,2105.38,2104.94,0.00226359,0.00176466
1027.0,0.00387042,599.818,2125.27,2124.81,0.00344633,0.00294741
1040.0,0.00349651,600.533,2145.12,2144.63,0.00341083,0.00291192
1053.0,0.00297611,601.248,2164.92,2164.41,0.00297611,0.00247721
1066.0,0.0026968,601.963,2184.67,2184.14,0.0026968,0.00219791
1079.0,0.0031255,602.678,2204.38,2203.82,0.00279568,0.0022968
1092.0,0.00277007,603.393,2224.04,2223.45,0.00323659,0.00273772
1105.0,0.00234425,604.108,2243.65,2243.04,0.00281434,0.00231549
1118.0,0.00403944,604.823,2263.22,2262.58,0.00341088,0.00291204
1131.0,0.00430332,605.538,2282.74,2282.08,0.0036474,0.00314856
1144.0,0.00346549,606.253,2302.22,2301.53,0.00372511,0.00322628
1157.0,0.00293284,606.968,2321.65,2320.93,0.00318897,0.00269015
1170.0,0.00358427,607.682,2341.03,2340.29,0.00387703,0.00337822
1183.0,0.0,608.397,2360.37,2359.6,0.00100394,0.000505141
1196.0,0.00363937,609.112,2379.66,2378.87,0.00376744,0.00326865
1209.0,0.00482479,609.827,2398.91,2398.09,0.00482479,0.004326
1222.0,0.00373661,610.542,2418.11,2417.27,0.00290632,0.00240754
1235.0,0.00286814,611.257,2437.27,2436.4,0.00286814,0.00236936
1248.0,0.00383073,611.972,2456.38,2455.49,0.00383073,0.00333196
1261.0,0.00345436,612.687,2475.45,2474.53,0.00261196,0.00211319
1274.0,0.00383402,613.402,2494.47,2493.53,0.00261626,0.0021175
1287.0,0.00479351,614.117,2513.45,2512.49,0.00386567,0.00336691
1300.0,0.00329018,614.832,2532.39,2531.4,0.00358602,0.00308726
1313.0,0.0035111,615.547,2551.28,2550.27,0.00320296,0.0027042
1326.0,0.00375641,616.262,2570.12,2569.09,0.00375641,0.00325765
1339.0,0.0040905,616.977,2588.93,2587.87,0.0040905,0.00359174
1352.0,0.00324628,617.692,2607.69,2606.6,0.00324628,0.00274753
1365.0,0.00203887,618.407,2626.4,2625.3,0.00243272,0.00193397
1378.0,0.00330035,619.122,2645.08,2643.95,0.00354153,0.00304278
1391.0,0.00490666,619.837,2663.71,2662.55,0.00390254,0.0034038
1404.0,0.00314986,620.551,2682.29,2681.12,0.00200536,0.00150662
1417.0,0.00236352,621.266,2700.84,2699.64,0.00388042,0.00338169
1430.0,0.00154968,621.981,2719.34,2718.11,0.00175125,0.00125253
1443.0,0.00374795,622.696,2737.8,2736.55,0.00371148,0.00321276
1456.0,0.00244273,623.411,2756.22,2754.94,0.00265337,0.00215466
1469.0,0.00064003,624.126,2774.59,2773.29,0.00182732,0.00132861
1482.0,0.00241402,624.841,2792.93,2791.6,0.00356137,0.00306267
1495.0,0.00388892,625.556,2811.22,2809.87,0.00388892,0.00339022
1508.0,0.00376769,626.271,2829.47,2828.1,0.00334362,0.00284493
1521.0,0.00191302,626.986,2847.67,2846.28,0.00191302,0.00141434
1534.0,0.00329324,627.701,2865.84,2864.42,0.00329324,0.00279457
1547.0,0.00347894,628.416,2883.96,2882.53,0.00347894,0.00298028
1560.0,0.0023718,629.131,2902.05,2900.59,0.0023718,0.00187314
1573.0,0.00507935,629.846,2920.09,2918.6,0.00499705,0.00449839
1586.0,0.00136283,630.561,2938.09,2936.58,0.00244313,0.00194447
1599.0,0.00328298,631.276,2956.05,2954.52,0.00322796,0.00272931
1612.0,0.000297551,631.991,2973.97,2972.42,0.00225204,0.00175339
1625.0,0.0040561,632.706,2991.85,2990.27,0.00289649,0.00239783
1638.0,0.00304946,633.421,3009.69,3008.09,0.00308005,0.00258138
1651.0,0.00145686,634.135,3027.49,3025.87,0.00203677,0.00153809
1664.0,0.00357217,634.85,3045.25,3043.6,0.00364545,0.00314676
1677.0,0.00358172,635.565,3062.97,3061.3,0.00461631,0.00411761
1690.0,0.00278862,636.28,3080.65,3078.96,0.00278862,0.00228991
1703.0,0.0018429,636.995,3098.29,3096.57,0.0023129,0.00181418
1716.0,0.00264889,637.71,3115.89,3114.15,0.0027404,0.00224166
1729.0,0.00332364,638.425,3133.45,3131.69,0.00332364,0.00282489
1742.0,0.00159965,639.14,3150.97,3149.19,0.00270133,0.00220257
1755.0,0.0034432,639.855,3168.45,3166.65,0.00328759,0.00278881
1768.0,0.00236004,640.57,3185.9,3184.07,0.00270492,0.00220613
1781.0,0.0017499,641.285,3203.3,3201.45,0.00240601,0.00190721
1794.0,0.00285486,642,3220.66,3218.79,0.00285486,0.00235605
1807.0,0.00152751,642.715,3237.99,3236.1,0.00152751,0.0010287
1820.0,0.00351422,643.43,3255.28,3253.36,0.00351422,0.0030154
1833.0,0.00245539,644.145,3272.53,3270.59,0.00246147,0.00196265
1846.0,0.00321847,644.86,3289.74,3287.78,0.00321847,0.00271964
1859.0,0.00370688,645.575,3306.92,3304.93,0.00295918,0.00246035
1872.0,0.00401826,646.29,3324.05,3322.05,0.00395112,0.00345228
1885.0,0.0061241,647.004,3341.15,3339.12,0.00602644,0.0055276
1898.0,0.00412829,647.719,3358.21,3356.16,0.00454029,0.00404145
1911.0,0.00913154,648.434,3375.23,3373.16,0.00851027,0.00801143
1924.0,0.00876973,649.149,3392.22,3390.12,0.00890402,0.00840518
1937.0,0.00612387,649.864,3409.16,3407.05,0.0060018,0.00550296
1950.0,0.0105612,650.579,3426.07,3423.94,0.0105612,0.0100624
1963.0,0.00819002,651.294,3442.95,3440.79,0.0105979,0.0100991
1976.0,0.0105242,652.009,3459.78,3457.6,0.0112075,0.0107087
1989.0,0.0124069,652.724,3476.58,3474.38,0.0114364,0.0109376
2002.0,0.0126907,653.439,3493.34,3491.12,0.0126907,0.0121919
2015.0,0.0140793,654.154,3510.07,3507.83,0.0136459,0.0131471
2028.0,0.0138534,654.869,3526.76,3524.49,0.0138534,0.0133546
2041.0,0.019072,655.584,3543.41,3541.12,0.0172928,0.016794
2047.0,0.0138198,655.914,3551.09,3548.79,0.0138198,0.013321