File: data/processed/processed_data/2024-09-03/2024-09-03_calcitecrystal_n_n_y_solid_1000_0_5.csv
Pixels #,Intensity (a.u.),Wavelength (nm),Raman shift (cm-1),Raman shift (cm-1) adjusted,Filtered Intensity (a.u.),Baselined Filtered Intensity (a.u.)
0.0,7.64026,543.337,392.223,393.994,7.63774,-0.0338261
12.0,7.64074,543.997,414.551,416.293,7.63851,-0.0330587
24.0,7.64014,544.657,436.825,438.537,7.63946,-0.0321162
36.0,7.63751,545.317,459.044,460.728,7.63751,-0.0340784
48.0,7.6412,545.977,481.21,482.866,7.64112,-0.0304853
60.0,7.63923,546.637,503.323,504.95,7.63934,-0.0322867
72.0,7.64208,547.297,525.382,526.981,7.64063,-0.0310227
84.0,7.64167,547.957,547.388,548.958,7.64188,-0.0298033
96.0,7.64006,548.617,569.341,570.883,7.64006,-0.0316581
108.0,7.64135,549.277,591.241,592.755,7.64135,-0.0304076
120.0,7.64251,549.937,613.089,614.575,7.64091,-0.0308915
132.0,7.63781,550.597,634.884,636.342,7.63873,-0.0331199
144.0,7.64077,551.257,656.627,658.057,7.64045,-0.031453
156.0,7.63722,551.917,678.319,679.72,7.63832,-0.0336407
168.0,7.64094,552.577,699.958,701.332,7.64123,-0.0307931
180.0,7.64349,553.237,721.546,722.892,7.64154,-0.03055
192.0,7.6454,553.897,743.082,744.4,7.6433,-0.0288613
204.0,7.6444,554.557,764.567,765.858,7.64317,-0.0290669
216.0,7.65053,555.217,786.001,787.264,7.64986,-0.0224566
228.0,7.65161,555.876,807.384,808.62,7.6516,-0.0207998
240.0,7.65611,556.536,828.716,829.924,7.65611,-0.0163761
252.0,7.65878,557.196,849.998,851.179,7.65929,-0.013285
264.0,7.6636,557.856,871.23,872.383,7.66437,-0.00829554
276.0,7.66433,558.516,892.411,893.537,7.66358,-0.0091773
288.0,7.66343,559.176,913.542,914.641,7.66457,-0.00828013
300.0,7.67037,559.836,934.624,935.695,7.6708,-0.00214375
312.0,7.67012,560.496,955.656,956.7,7.66917,-0.00386782
324.0,7.66859,561.156,976.638,977.655,7.66916,-0.0039725
336.0,7.67301,561.816,997.571,998.562,7.6721,-0.00112786
348.0,7.67432,562.476,1018.45,1019.42,7.67432,0.000996451
360.0,7.67599,563.136,1039.29,1040.23,7.67587,0.00245094
372.0,7.68285,563.796,1060.08,1060.99,7.68285,0.00933584
384.0,7.9866,564.456,1080.81,1081.7,7.98442,0.310812
396.0,7.68684,565.116,1101.5,1102.36,7.68684,0.0131384
408.0,7.6808,565.776,1122.14,1122.97,7.67946,0.00566608
420.0,7.68025,566.436,1142.74,1143.54,7.67995,0.00606467
432.0,7.68302,567.096,1163.28,1164.06,7.683,0.00902407
444.0,7.68331,567.756,1183.78,1184.53,7.68338,0.00931468
456.0,7.68978,568.416,1204.23,1204.95,7.6867,0.0125467
468.0,7.68681,569.075,1224.63,1225.33,7.68681,0.0125706
480.0,7.68905,569.735,1244.99,1245.66,7.68781,0.0134864
492.0,7.68681,570.395,1265.29,1265.94,7.68681,0.0124041
504.0,7.68768,571.055,1285.55,1286.17,7.6893,0.0148137
516.0,7.68989,571.715,1305.77,1306.36,7.69136,0.0167954
528.0,7.69416,572.375,1325.94,1326.5,7.69278,0.0181395
540.0,7.69573,573.035,1346.06,1346.6,7.69573,0.0210164
552.0,7.69838,573.695,1366.13,1366.65,7.69783,0.0230464
564.0,7.69954,574.355,1386.16,1386.65,7.69996,0.0251097
576.0,7.70298,575.015,1406.14,1406.61,7.70335,0.0284367
588.0,7.70784,575.675,1426.08,1426.52,7.70784,0.0328676
600.0,7.70831,576.335,1445.97,1446.38,7.70722,0.0321931
612.0,7.70647,576.995,1465.82,1466.2,7.70684,0.0317632
624.0,7.71087,577.655,1485.62,1485.98,7.70985,0.0347278
636.0,7.71144,578.315,1505.37,1505.71,7.71144,0.0362767
648.0,7.71398,578.975,1525.08,1525.39,7.71398,0.0387782
660.0,7.71598,579.635,1544.75,1545.03,7.71534,0.0401002
672.0,7.71789,580.295,1564.37,1564.63,7.71789,0.0426122
684.0,7.72109,580.955,1583.94,1584.18,7.71968,0.0443641
696.0,7.72083,581.614,1603.47,1603.68,7.72081,0.0454561
708.0,7.72193,582.274,1622.96,1623.15,7.72193,0.046538
720.0,7.72478,582.934,1642.4,1642.56,7.72386,0.04843
732.0,7.72338,583.594,1661.8,1661.94,7.72352,0.048052
744.0,7.72835,584.254,1681.16,1681.27,7.72835,0.0528439
756.0,7.73111,584.914,1700.47,1700.55,7.73068,0.0551359
768.0,7.73348,585.574,1719.74,1719.8,7.73348,0.0578979
780.0,7.73402,586.234,1738.96,1739,7.73535,0.0597298
792.0,7.73939,586.894,1758.14,1758.15,7.73939,0.0637318
804.0,7.73751,587.554,1777.28,1777.27,7.7375,0.0618038
816.0,7.73812,588.214,1796.38,1796.34,7.73812,0.0623857
828.0,7.74205,588.874,1815.43,1815.37,7.74184,0.0660677
840.0,7.73978,589.534,1834.44,1834.35,7.73946,0.0636496
852.0,7.74292,590.194,1853.41,1853.29,7.74485,0.0690016
864.0,7.74902,590.854,1872.33,1872.2,7.74902,0.0731336
876.0,7.74623,591.514,1891.21,1891.05,7.74623,0.0703055
888.0,7.75037,592.174,1910.05,1909.87,7.75111,0.0751475
900.0,7.75109,592.834,1928.85,1928.64,7.75109,0.0750895
912.0,7.75227,593.494,1947.61,1947.38,7.75187,0.0758314
924.0,7.75378,594.154,1966.33,1966.07,7.75378,0.0777034
936.0,7.75235,594.813,1985,1984.72,7.75342,0.0773054
948.0,7.75443,595.473,2003.63,2003.33,7.75443,0.0782773
960.0,7.75759,596.133,2022.22,2021.89,7.75672,0.0805293
972.0,7.76011,596.793,2040.77,2040.42,7.75799,0.0817613
984.0,7.76099,597.453,2059.28,2058.91,7.75986,0.0835932
996.0,7.76195,598.113,2077.75,2077.35,7.76083,0.0845252
1008.0,7.75817,598.773,2096.18,2095.75,7.75936,0.0830171
1020.0,7.76238,599.433,2114.56,2114.12,7.76238,0.0859991
1032.0,7.76522,600.093,2132.91,2132.44,7.76512,0.0887011
1044.0,7.76292,600.753,2151.22,2150.72,7.7633,0.086843
1056.0,7.76513,601.413,2169.48,2168.96,7.76513,0.088635
1068.0,7.76511,602.073,2187.71,2187.17,7.76563,0.089097
1080.0,7.76786,602.733,2205.89,2205.33,7.76675,0.0901789
1092.0,7.76565,603.393,2224.04,2223.45,7.76629,0.0896809
1104.0,7.76511,604.053,2242.15,2241.54,7.76619,0.0895429
1116.0,7.7681,604.713,2260.21,2259.58,7.76822,0.0915348
1128.0,7.76701,605.373,2278.24,2277.58,7.76789,0.0911668
1140.0,7.77006,606.033,2296.23,2295.55,7.77023,0.0934687
1152.0,7.77043,606.693,2314.18,2313.47,7.77012,0.0933207
1164.0,7.76854,607.353,2332.09,2331.36,7.76917,0.0923327
1176.0,7.77045,608.012,2349.96,2349.21,7.77045,0.0935746
1188.0,7.77079,608.672,2367.79,2367.02,7.77019,0.0932766
1200.0,7.77128,609.332,2385.59,2384.79,7.7712,0.0942486
1212.0,7.77074,609.992,2403.34,2402.52,7.77122,0.0942305
1224.0,7.76879,610.652,2421.06,2420.22,7.7692,0.0921725
1236.0,7.77017,611.312,2438.74,2437.87,7.76973,0.0926645
1248.0,7.76644,611.972,2456.38,2455.49,7.7673,0.0901964
1260.0,7.76999,612.632,2473.98,2473.07,7.76898,0.0918384
1272.0,7.76808,613.292,2491.55,2490.61,7.76807,0.0908903
1284.0,7.76651,613.952,2509.07,2508.12,7.76651,0.0892923
1296.0,7.76626,614.612,2526.56,2525.59,7.76626,0.0890043
1308.0,7.76573,615.272,2544.02,2543.01,7.76524,0.0879462
1320.0,7.76321,615.932,2561.43,2560.41,7.76454,0.0872082
1332.0,7.75991,616.592,2578.81,2577.76,7.75991,0.0825402
1344.0,7.76211,617.252,2596.15,2595.08,7.76068,0.0832721
1356.0,7.75907,617.912,2613.45,2612.36,7.75907,0.0816241
1368.0,7.7543,618.572,2630.72,2629.6,7.7557,0.0782161
1380.0,7.7545,619.232,2647.95,2646.81,7.75613,0.078608
1392.0,7.75109,619.892,2665.14,2663.98,7.75298,0.07542
1404.0,7.75268,620.551,2682.29,2681.12,7.75215,0.074552
1416.0,7.75108,621.211,2699.41,2698.21,7.75108,0.0734439
1428.0,7.75204,621.871,2716.5,2715.27,7.75202,0.0743459
1440.0,7.75158,622.531,2733.54,2732.3,7.75088,0.0731678
1452.0,7.74586,623.191,2750.56,2749.29,7.74649,0.0687398
1464.0,7.74697,623.851,2767.53,2766.24,7.74697,0.0691818
1476.0,7.74504,624.511,2784.47,2783.16,7.74552,0.0676937
1488.0,7.74293,625.171,2801.37,2800.04,7.7427,0.0648357
1500.0,7.73987,625.831,2818.24,2816.89,7.73987,0.0619677
1512.0,7.74392,626.491,2835.07,2833.7,7.7423,0.0643596
1524.0,7.73877,627.151,2851.87,2850.47,7.73841,0.0604316
1536.0,7.73834,627.811,2868.63,2867.21,7.73834,0.0603236
1548.0,7.73454,628.471,2885.36,2883.92,7.73454,0.0564855
1560.0,7.73447,629.131,2902.05,2900.59,7.73447,0.0563775
1572.0,7.73199,629.791,2918.7,2917.22,7.73199,0.0538594
1584.0,7.73277,630.451,2935.32,2933.82,7.73088,0.0527114
1596.0,7.72745,631.111,2951.91,2950.38,7.72745,0.0492434
1608.0,7.72546,631.771,2968.46,2966.92,7.72546,0.0472153
1620.0,7.72538,632.431,2984.98,2983.41,7.72538,0.0470973
1632.0,7.72243,633.091,3001.46,2999.87,7.72243,0.0441093
1644.0,7.71706,633.75,3017.91,3016.3,7.71788,0.0395212
1656.0,7.71526,634.41,3034.33,3032.69,7.71604,0.0376438
1668.0,7.7138,635.07,3050.71,3049.05,7.71471,0.0362801
1680.0,7.70986,635.73,3067.05,3065.38,7.70986,0.031401
1692.0,7.70982,636.39,3083.36,3081.67,7.70804,0.0295565
1704.0,7.70705,637.05,3099.64,3097.93,7.70729,0.0287864
1716.0,7.70185,637.71,3115.89,3114.15,7.70362,0.0251004
1728.0,7.70226,638.37,3132.1,3130.34,7.70369,0.0251581
1740.0,7.69929,639.03,3148.28,3146.5,7.69929,0.0207493
1752.0,7.70109,639.69,3164.42,3162.62,7.70109,0.0225435
1764.0,7.69582,640.35,3180.53,3178.71,7.69608,0.0175306
1776.0,7.69173,641.01,3196.61,3194.77,7.69173,0.0131802
1788.0,7.68954,641.67,3212.65,3210.79,7.68947,0.0109216
1800.0,7.68826,642.33,3228.67,3226.78,7.68826,0.00971481
1812.0,7.68739,642.99,3244.65,3242.74,7.68739,0.00884937
1824.0,7.68273,643.65,3260.59,3258.67,7.68289,0.00435495
1836.0,7.68096,644.31,3276.51,3274.56,7.68139,0.00286123
1848.0,7.67979,644.97,3292.39,3290.42,7.68129,0.00276795
1860.0,7.68031,645.63,3308.23,3306.25,7.6799,0.00138493
1872.0,7.6802,646.29,3324.05,3322.05,7.67951,0.00100188
1884.0,7.67738,646.949,3339.83,3337.81,7.67738,-0.00112121
1896.0,7.67511,647.609,3355.59,3353.54,7.67511,-0.00338441
1908.0,7.67513,648.269,3371.31,3369.24,7.67601,-0.00247795
1920.0,7.67674,648.929,3386.99,3384.91,7.67625,-0.00223188
1932.0,7.67625,649.589,3402.65,3400.54,7.67751,-0.000966406
1944.0,7.67435,650.249,3418.27,3416.15,7.67435,-0.00412137
1956.0,7.67726,650.909,3433.87,3431.72,7.67683,-0.00163685
1968.0,7.67353,651.569,3449.43,3447.26,7.67427,-0.00419288
1980.0,7.67411,652.229,3464.96,3462.77,7.6726,-0.00585956
1992.0,7.67608,652.889,3480.45,3478.25,7.67667,-0.00178698
2004.0,7.67365,653.549,3495.92,3493.69,7.67365,-0.00480475
2016.0,7.67398,654.209,3511.36,3509.11,7.67563,-0.0028232
2028.0,7.67666,654.869,3526.76,3524.49,7.67755,-0.000902109
2040.0,7.6767,655.529,3542.13,3539.85,7.67416,-0.00429135
2047.0,7.67239,655.914,3551.09,3548.79,7.67172,-0.00673118